# XDI/1.0 Hephaestus/0.9.26
# Element.edge:                  K
# Element.symbol:                Mo
# Column.1:                      energy eV
# Column.2:                      xmu
# Column.3:                      bkg
# Column.4:                      pre_edge
# Column.5:                      post_edge
# Column.6:                      der
# Column.7:                      sec
# Column.8:                      i0
# Column.9:                      chi(e)
# Athena.e0:                     20009.98972
# Athena.eshift:                 0
# Athena.rbkg:                   1
# Athena.importance:             1
# Athena.standard:               None
# Athena.bkg_kweight:            2
# Athena.edge_step:              0.8436235
# Athena.fixed_step:             no
# Athena.pre_edge_range:         -150.000 -60.000
# Athena.pre_edge_line:          -2.570450 + 1.00708e-005 * E
# Athena.normalization_range:    100.000 1000.000
# Athena.post_edge_polynomial:   35.779979 - 0.0034282 * E + 7.81545401e-008 * E^2 + 0 * E^3
# Athena.spline_range_energy:    0.000 1234.435
# Athena.clamps:                 0 24
# Athena.spline_range_k:         0.000 18.000
# Athena.kweight:                1
# Athena.window:                 hanning
# Athena.phase_correction:       no
# Athena.k_range:                3.000 17.000
# Athena.dk:                     1
# Athena.r_range:                1 3
# Athena.dr:                     0.0
# Athena.window:                 hanning
# Athena.plot_multiplier:        1
# Athena.y_offset:               0
# ///
#------------------------
#   e         xmu        bkg        pre_edge        post_edge        der        sec        i0        chie
  19799.991       -2.3640997       -2.3640997       -2.3710480       -1.4587665      -0.21557312E-03   0.39778746E-05    28070.800        0.0000000
  19809.994       -2.3662560       -2.3662560       -2.3709473       -1.4620925      -0.17578388E-03   0.82707673E-05    28112.800        0.0000000
  19820.006       -2.3676181       -2.3676181       -2.3708464       -1.4654061      -0.50029829E-04   0.73610820E-05    28104.800        0.0000000
  19830.009       -2.3672573       -2.3672573       -2.3707457       -1.4687006      -0.28452336E-04  -0.19092786E-05    27998.800        0.0000000
  19840.000       -2.3681869       -2.3681869       -2.3706451       -1.4719759      -0.88202839E-04  -0.31761777E-06    27957.800        0.0000000
  19850.001       -2.3690207       -2.3690207       -2.3705444       -1.4752389      -0.34802402E-04  -0.34661356E-06    27890.800        0.0000000
  19859.992       -2.3688827       -2.3688827       -2.3704438       -1.4784827      -0.95132375E-04  -0.18530987E-05    27791.800        0.0000000
  19869.993       -2.3709226       -2.3709226       -2.3703430       -1.4817142      -0.71848495E-04   0.51804574E-05    27847.800        0.0000000
  19880.004       -2.3703205       -2.3703205       -2.3702422       -1.4849334       0.85374887E-05   0.36682698E-05    27802.800        0.0000000
  19890.004       -2.3707517       -2.3707517       -2.3701415       -1.4881333       0.15571781E-05   0.14302101E-05    27725.800        0.0000000
  19899.993       -2.3702894       -2.3702894       -2.3700409       -1.4913142       0.37126174E-04  -0.87476117E-06    27721.800        0.0000000
  19909.992       -2.3700096       -2.3700096       -2.3699402       -1.4944827      -0.15927828E-04  -0.20732396E-05    27612.800        0.0000000
  19920.001       -2.3706081       -2.3706081       -2.3698394       -1.4976388      -0.43563863E-05   0.15659116E-05    27554.800        0.0000000
  19930.000       -2.3700968       -2.3700968       -2.3697387       -1.5007757       0.15402462E-04   0.61470307E-05    27515.800        0.0000000
  19940.008       -2.3702999       -2.3702999       -2.3696379       -1.5039002       0.11862609E-03   0.11617386E-04    27511.800        0.0000000
  19950.006       -2.3677236       -2.3677236       -2.3695372       -1.5070056       0.24781837E-03   0.84999744E-05    27378.800        0.0000000
  19959.992       -2.3653476       -2.3653476       -2.3694367       -1.5100919       0.28848720E-03   0.68570729E-05    27300.800        0.0000000
  19970.010       -2.3619527       -2.3619527       -2.3693358       -1.5131723       0.38498677E-03   0.50771154E-04    27248.800        0.0000000
  19971.008       -2.3611067       -2.3611067       -2.3693257       -1.5134783       0.84776650E-03   0.10403284E-03    27219.800        0.0000000
  19972.006       -2.3602603       -2.3602603       -2.3693157       -1.5137842       0.59266234E-03  -0.27723516E-03    27226.800        0.0000000
  19973.004       -2.3599235       -2.3599235       -2.3693056       -1.5140900       0.29428037E-03   0.12877550E-03    27211.800        0.0000000
  19974.002       -2.3596728       -2.3596728       -2.3692956       -1.5143957       0.84978066E-03   0.20718071E-03    27208.800        0.0000000
  19975.001       -2.3582266       -2.3582266       -2.3692855       -1.5147012       0.70798918E-03  -0.18156592E-03    27233.800        0.0000000
  19976.000       -2.3582589       -2.3582589       -2.3692755       -1.5150066       0.48718445E-03   0.12747215E-03    27222.800        0.0000000
  19976.998       -2.3572536       -2.3572536       -2.3692654       -1.5153119       0.96258293E-03   0.26624924E-03    27201.800        0.0000000
  19977.997       -2.3563362       -2.3563362       -2.3692553       -1.5156171       0.10190040E-02   0.61140853E-04    27200.800        0.0000000
  19978.996       -2.3552180       -2.3552180       -2.3692453       -1.5159221       0.10847210E-02  -0.10401987E-03    27207.800        0.0000000
  19979.995       -2.3541691       -2.3541691       -2.3692352       -1.5162271       0.81118686E-03  -0.56677440E-05    27212.800        0.0000000
  19980.994       -2.3535972       -2.3535972       -2.3692252       -1.5165319       0.10733965E-02   0.33245928E-03    27183.800        0.0000000
  19981.993       -2.3520241       -2.3520241       -2.3692151       -1.5168365       0.14755236E-02   0.25258353E-03    27202.800        0.0000000
  19982.992       -2.3506484       -2.3506484       -2.3692050       -1.5171411       0.15781720E-02   0.14432456E-03    27210.800        0.0000000
  19983.992       -2.3488699       -2.3488699       -2.3691950       -1.5174455       0.17639793E-02   0.22485098E-03    27198.800        0.0000000
  19984.991       -2.3471224       -2.3471224       -2.3691849       -1.5177498       0.20276199E-02   0.38955766E-03    27212.800        0.0000000
  19985.991       -2.3448166       -2.3448166       -2.3691748       -1.5180539       0.25427324E-02   0.28308265E-03    27171.800        0.0000000
  19986.990       -2.3420388       -2.3420388       -2.3691648       -1.5183580       0.25935757E-02   0.13536295E-03    27179.800        0.0000000
  19987.990       -2.3396308       -2.3396308       -2.3691547       -1.5186619       0.28133852E-02   0.59627659E-03    27187.800        0.0000000
  19988.990       -2.3364130       -2.3364130       -2.3691446       -1.5189657       0.37859321E-02   0.10254222E-02    27194.800        0.0000000
  19989.990       -2.3320594       -2.3320594       -2.3691346       -1.5192693       0.48640962E-02   0.10354867E-02    27174.800        0.0000000
  19990.990       -2.3266845       -2.3266845       -2.3691245       -1.5195729       0.58569781E-02   0.99623765E-03    27167.800        0.0000000
  19991.990       -2.3203439       -2.3203439       -2.3691144       -1.5198763       0.68568405E-02   0.17541871E-02    27156.800        0.0000000
  19992.991       -2.3129676       -2.3129676       -2.3691043       -1.5201796       0.93661767E-02   0.37088075E-02    27171.800        0.0000000
  19993.991       -2.3016052       -2.3016052       -2.3690943       -1.5204827       0.14276978E-01   0.43615977E-02    27178.800        0.0000000
  19994.992       -2.2844010       -2.2844010       -2.3690842       -1.5207857       0.18093210E-01   0.36210645E-02    27165.800        0.0000000
  19995.992       -2.2653992       -2.2653992       -2.3690741       -1.5210887       0.21523017E-01   0.60876579E-02    27140.800        0.0000000
  19996.993       -2.2413275       -2.2413275       -2.3690640       -1.5213914       0.30276318E-01   0.10269888E-01    27144.800        0.0000000
  19997.994       -2.2048018       -2.2048018       -2.3690540       -1.5216941       0.42077992E-01   0.71181255E-02    27165.800        0.0000000
  19998.995       -2.1571008       -2.1571008       -2.3690439       -1.5219966       0.44524528E-01  -0.31970054E-03    27164.800        0.0000000
  19999.996       -2.1156686       -2.1156686       -2.3690338       -1.5222990       0.41437987E-01  -0.12024334E-02    27131.800        0.0000000
  20000.997       -2.0741382       -2.0741382       -2.3690237       -1.5226013       0.42117148E-01   0.11285565E-02    27120.800        0.0000000
  20001.998       -2.0313378       -2.0313378       -2.3690136       -1.5229034       0.43697684E-01  -0.12035549E-02    27130.800        0.0000000
  20002.999       -1.9866336       -1.9866336       -2.3690036       -1.5232055       0.39707029E-01  -0.43280247E-02    27125.800        0.0000000
  20004.001       -1.9518169       -1.9518169       -2.3689935       -1.5235074       0.35029993E-01  -0.17735662E-02    27108.800        0.0000000
  20005.002       -1.9164724       -1.9164724       -2.3689834       -1.5238091       0.36154771E-01   0.30591017E-02    27128.800        0.0000000
  20006.004       -1.8793953       -1.8793953       -2.3689733       -1.5241108       0.41157679E-01   0.21179380E-02    27129.800        0.0000000
  20007.005       -1.8340212       -1.8340212       -2.3689632       -1.5244123       0.40397636E-01  -0.10106687E-02    27157.800        0.0000000
  20008.007       -1.7984583       -1.7984583       -2.3689531       -1.5247137       0.39132794E-01   0.46746511E-02    27127.800        0.0000000
  20009.009       -1.7556104       -1.7556104       -2.3689430       -1.5250150       0.49764281E-01   0.61820605E-02    27128.800        0.0000000
  20009.990       -1.6997966       -1.6997966       -2.3689332       -1.5253097       0.51389224E-01  -0.16342984E-02    27114.800        0.0000000
  20010.992       -1.6537164       -1.6638757       -2.3689231       -1.5256107       0.46523811E-01  -0.32845793E-02    27118.800       0.12042439E-01
  20011.994       -1.6065484       -1.6383521       -2.3689130       -1.5259116       0.44805909E-01  -0.37396445E-02    27116.800       0.37698837E-01
  20012.996       -1.5639025       -1.6157071       -2.3689029       -1.5262124       0.39027656E-01  -0.97348505E-02    27124.800       0.61407233E-01
  20013.999       -1.5283093       -1.5957745       -2.3688928       -1.5265130       0.25290357E-01  -0.14276572E-01    27113.800       0.79970685E-01
  20015.001       -1.5131976       -1.5783871       -2.3688827       -1.5268135       0.10404415E-01  -0.12510661E-01    27109.800       0.77273190E-01
  20016.004       -1.5074472       -1.5633783       -2.3688726       -1.5271139       0.20497959E-03  -0.10198323E-01    27103.800       0.66298598E-01
  20017.007       -1.5127865       -1.5505811       -2.3688625       -1.5274141      -0.10046487E-01  -0.70899435E-02    27086.800       0.44800219E-01
  20018.009       -1.5275956       -1.5398284       -2.3688524       -1.5277143      -0.14014044E-01  -0.16477775E-02    27082.800       0.14500268E-01
  20018.991       -1.5405959       -1.5311235       -2.3688425       -1.5280079      -0.13316320E-01   0.16203059E-02    27084.800      -0.11228216E-01
  20019.994       -1.5540231       -1.5239237       -2.3688324       -1.5283078      -0.10798401E-01   0.44596869E-02    27076.800      -0.35678707E-01
  20020.997       -1.5622588       -1.5182702       -2.3688223       -1.5286075      -0.43696530E-02   0.62249673E-02    27077.800      -0.52142429E-01
  20022.000       -1.5627900       -1.5139955       -2.3688122       -1.5289071       0.16909376E-02   0.48426341E-02    27071.800      -0.57839238E-01
  20023.004       -1.5588658       -1.5109321       -2.3688021       -1.5292066       0.53472376E-02   0.28916955E-02    27063.800      -0.56818830E-01
  20024.007       -1.5520596       -1.5089124       -2.3687920       -1.5295060       0.74937897E-02   0.71890388E-03    27050.800      -0.51145078E-01
  20025.011       -1.5438263       -1.5077685       -2.3687819       -1.5298052       0.67900345E-02  -0.15502388E-02    27040.800      -0.42741537E-01
  20025.993       -1.5385761       -1.5073357       -2.3687720       -1.5300980       0.44153565E-02  -0.21589171E-02    27037.800      -0.37031231E-01
  20026.997       -1.5350575       -1.5074300       -2.3687619       -1.5303970       0.25024684E-02  -0.18339925E-02    27036.800      -0.32748532E-01
  20028.000       -1.5335523       -1.5078999       -2.3687518       -1.5306958       0.73354320E-03  -0.86418990E-03    27023.800      -0.30407338E-01
  20029.004       -1.5335847       -1.5085772       -2.3687417       -1.5309946       0.76739113E-03   0.48656183E-03    27004.800      -0.29642977E-01
  20031.525       -1.5308473       -1.5103768       -2.3687163       -1.5317440       0.24486055E-02   0.13359517E-02    54040.600      -0.24265029E-01
  20033.064       -1.5236447       -1.5114377       -2.3687008       -1.5322009       0.61906068E-02   0.15901398E-02    53895.600      -0.14469789E-01
  20034.667       -1.5114003       -1.5125135       -2.3686846       -1.5326766       0.74438389E-02   0.28192281E-03    53906.600       0.13196267E-02
  20036.291       -1.4996207       -1.5135743       -2.3686683       -1.5331582       0.71004760E-02   0.94092033E-04    53876.600       0.16540122E-01
  20037.959       -1.4880253       -1.5146333       -2.3686515       -1.5336521       0.77535927E-02   0.27046651E-04    53840.600       0.31540159E-01
  20039.648       -1.4735941       -1.5156763       -2.3686345       -1.5341521       0.71912640E-02  -0.12233942E-02    53810.600       0.49882717E-01
  20041.401       -1.4632670       -1.5167286       -2.3686168       -1.5346706       0.35416543E-02  -0.27767027E-02    53701.600       0.63371432E-01
  20043.177       -1.4610956       -1.5177637       -2.3685989       -1.5351951      -0.26076920E-02  -0.35993032E-02    53692.600       0.67172285E-01
  20044.974       -1.4725827       -1.5187818       -2.3685808       -1.5357254      -0.93165324E-02  -0.26498957E-02    53678.600       0.54762682E-01
  20046.835       -1.4951813       -1.5198065       -2.3685621       -1.5362743      -0.12302680E-01  -0.38413735E-03    53722.600       0.29189786E-01
  20048.719       -1.5186552       -1.5208138       -2.3685431       -1.5368291      -0.10755092E-01   0.13133086E-02    53743.600       0.25587411E-02
  20050.645       -1.5361565       -1.5218152       -2.3685237       -1.5373959      -0.72991839E-02   0.18342563E-02    53756.600      -0.16999722E-01
  20052.615       -1.5470942       -1.5228105       -2.3685039       -1.5379749      -0.36084627E-02   0.18250639E-02    53773.600      -0.28785056E-01
  20054.606       -1.5504504       -1.5237894       -2.3684838       -1.5385597      -0.69722373E-04   0.14996005E-02    53718.600      -0.31602906E-01
  20056.663       -1.5473765       -1.5247733       -2.3684631       -1.5391629       0.24614251E-02   0.81033749E-03    53661.600      -0.26792980E-01
  20058.719       -1.5403272       -1.5257320       -2.3684424       -1.5397655       0.32629932E-02  -0.49751520E-04    53693.600      -0.17300522E-01
  20060.841       -1.5337440       -1.5266968       -2.3684210       -1.5403863       0.22535682E-02  -0.68981191E-03    53663.600      -0.83535421E-02
  20062.984       -1.5307168       -1.5276487       -2.3683995       -1.5410129       0.32129025E-03  -0.86359433E-03    53658.600      -0.36367899E-02
  20065.170       -1.5323529       -1.5285990       -2.3683774       -1.5416514      -0.14855535E-02  -0.58973634E-03    53615.600      -0.44497602E-02
  20067.400       -1.5372777       -1.5295488       -2.3683550       -1.5423017      -0.22832390E-02  -0.22488947E-03    53567.600      -0.91615165E-02
  20069.673       -1.5426348       -1.5304998       -2.3683321       -1.5429640      -0.24982734E-02   0.10910179E-03    53581.600      -0.14384271E-01
  20071.969       -1.5486912       -1.5314453       -2.3683090       -1.5436318      -0.17848010E-02   0.64224951E-03    53521.600      -0.20442636E-01
  20074.307       -1.5509055       -1.5323964       -2.3682854       -1.5443114       0.47790435E-03   0.10897169E-02    53536.600      -0.21940059E-01
  20076.668       -1.5464453       -1.5333469       -2.3682616       -1.5449965       0.33362581E-02   0.10587087E-02    53567.600      -0.15526320E-01
  20079.094       -1.5349368       -1.5343171       -2.3682372       -1.5456996       0.55453182E-02   0.41045900E-03    53529.600      -0.73455516E-03
  20081.542       -1.5194205       -1.5352929       -2.3682126       -1.5464082       0.53366095E-02  -0.60737351E-03    53522.600       0.18814586E-01
  20084.033       -1.5085789       -1.5362863       -2.3681875       -1.5471284       0.25454519E-02  -0.13641259E-02    53486.600       0.32843414E-01
  20086.546       -1.5066811       -1.5372927       -2.3681622       -1.5478540      -0.14904995E-02  -0.15369425E-02    53477.600       0.36285839E-01
  20089.103       -1.5161364       -1.5383244       -2.3681364       -1.5485912      -0.52475688E-02  -0.98254221E-03    53410.600       0.26300856E-01
  20091.704       -1.5337467       -1.5393829       -2.3681102       -1.5493399      -0.65581869E-02   0.89221632E-04    53374.600       0.66809852E-02
  20094.348       -1.5505345       -1.5404680       -2.3680836       -1.5501001      -0.47795960E-02   0.89221248E-03    53261.600      -0.11932487E-01
  20097.015       -1.5591309       -1.5415704       -2.3680567       -1.5508656      -0.18196911E-02   0.98638218E-03    53019.600      -0.20815480E-01
  20099.725       -1.5603188       -1.5426988       -2.3680294       -1.5516425       0.52408237E-03   0.54751516E-03    53126.600      -0.20886081E-01
  20102.479       -1.5562671       -1.5438527       -2.3680017       -1.5524308       0.11721618E-02   0.23714068E-04    53394.600      -0.14715525E-01
  20105.256       -1.5538362       -1.5450226       -2.3679737       -1.5532242       0.65523255E-03  -0.14041694E-03    53351.600      -0.10447291E-01
  20108.076       -1.5526000       -1.5462170       -2.3679453       -1.5540290       0.38630432E-03  -0.31756249E-04    53323.600      -0.75661596E-02
  20110.940       -1.5516403       -1.5474353       -2.3679165       -1.5548450       0.47472019E-03   0.83030669E-04    53303.600      -0.49843990E-02
  20113.827       -1.5498701       -1.5486678       -2.3678874       -1.5556660       0.86377550E-03   0.23146149E-03    53331.600      -0.14251573E-02
  20116.779       -1.5465972       -1.5499320       -2.3678577       -1.5565044       0.18260826E-02   0.29526637E-03    53305.600       0.39529380E-02
  20119.731       -1.5390875       -1.5511996       -2.3678280       -1.5573416       0.26072525E-02   0.14671984E-04    53262.600       0.14357194E-01
  20122.750       -1.5310288       -1.5524973       -2.3677976       -1.5581960       0.19136918E-02  -0.38469146E-03    53179.600       0.25447885E-01
  20125.791       -1.5274920       -1.5538057       -2.3677669       -1.5590554       0.27631850E-03  -0.57770656E-03    53085.600       0.31191250E-01
  20128.876       -1.5293362       -1.5551330       -2.3677359       -1.5599257      -0.16252230E-02  -0.53128188E-03    53125.600       0.30578652E-01
  20132.005       -1.5375911       -1.5564782       -2.3677044       -1.5608070      -0.30250671E-02  -0.32522699E-03    53025.600       0.22388073E-01
  20135.156       -1.5483357       -1.5578308       -2.3676726       -1.5616930      -0.36678729E-02  -0.15874994E-03    53030.600       0.11255234E-01
  20138.352       -1.5608727       -1.5591989       -2.3676404       -1.5625899      -0.40327228E-02   0.55191823E-04    53000.600      -0.19841524E-02
  20141.592       -1.5742897       -1.5605809       -2.3676078       -1.5634976      -0.33126661E-02   0.34258821E-03    52941.600      -0.16249898E-01
  20144.855       -1.5824142       -1.5619664       -2.3675749       -1.5644100      -0.18049540E-02   0.37964082E-03    52902.600      -0.24238116E-01
  20148.162       -1.5861478       -1.5633629       -2.3675416       -1.5653330      -0.81853218E-03   0.21793489E-03    52911.600      -0.27008325E-01
  20151.513       -1.5878643       -1.5647688       -2.3675079       -1.5662667      -0.35386500E-03   0.15962825E-03    52874.600      -0.27376517E-01
  20154.887       -1.5885277       -1.5661734       -2.3674739       -1.5672050       0.25504121E-03   0.22799559E-03    52842.600      -0.26497909E-01
  20158.306       -1.5861319       -1.5675839       -2.3674395       -1.5681538       0.11948270E-02   0.19261434E-03    52832.600      -0.21986158E-01
  20161.769       -1.5803054       -1.5689982       -2.3674046       -1.5691131       0.15805206E-02  -0.13773319E-04    52802.600      -0.13403192E-01
  20165.255       -1.5751491       -1.5704056       -2.3673695       -1.5700768       0.10991185E-02  -0.17583572E-03    52708.600      -0.56228166E-02
  20168.807       -1.5725700       -1.5718213       -2.3673337       -1.5710568       0.34300814E-03  -0.18562570E-03    52664.600      -0.88743400E-03
  20172.360       -1.5727119       -1.5732172       -2.3672979       -1.5720353      -0.21981890E-03   0.16818933E-04    52642.600       0.59899025E-03
  20175.980       -1.5741467       -1.5746167       -2.3672615       -1.5730299       0.46364900E-03   0.35677142E-03    52661.600       0.55709733E-03
  20179.622       -1.5693448       -1.5760002       -2.3672248       -1.5740288       0.23711300E-02   0.44115162E-03    52663.600       0.78890844E-02
  20183.288       -1.5568180       -1.5773656       -2.3671879       -1.5750320       0.36876821E-02   0.98818127E-04    52600.600       0.24356424E-01
  20187.020       -1.5420645       -1.5787264       -2.3671503       -1.5760511       0.31021559E-02  -0.42941563E-03    52550.600       0.43457668E-01
  20190.775       -1.5335914       -1.5800658       -2.3671125       -1.5770744       0.47254422E-03  -0.75003060E-03    52587.600       0.55089070E-01
  20194.553       -1.5385046       -1.5813841       -2.3670744       -1.5781018      -0.25481696E-02  -0.73506575E-03    52527.600       0.50827842E-01
  20198.398       -1.5530166       -1.5826964       -2.3670357       -1.5791449      -0.51310016E-02  -0.50670377E-03    52539.600       0.35181401E-01
  20202.266       -1.5780801       -1.5839876       -2.3669968       -1.5801921      -0.64563859E-02  -0.98416975E-04    52478.600       0.70025720E-02
  20206.158       -1.6031147       -1.5852582       -2.3669576       -1.5812431      -0.58946652E-02   0.37042369E-03    52461.600      -0.21166378E-01
  20210.116       -1.6243500       -1.5865224       -2.3669177       -1.5823098      -0.35487600E-02   0.73079072E-03    52404.600      -0.44839536E-01
  20214.097       -1.6312902       -1.5877662       -2.3668776       -1.5833803      -0.92515750E-04   0.66825856E-03    52420.600      -0.51591845E-01
  20218.102       -1.6250889       -1.5889901       -2.3668373       -1.5844545       0.17881066E-02   0.18067596E-03    52384.600      -0.42790148E-01
  20222.152       -1.6168875       -1.5902013       -2.3667965       -1.5855384       0.13627822E-02  -0.15438202E-03    52333.600      -0.31632889E-01
  20226.247       -1.6139889       -1.5913997       -2.3667553       -1.5866317       0.53064960E-03  -0.80041161E-04    52247.600      -0.26776351E-01
  20230.388       -1.6125173       -1.5925858       -2.3667136       -1.5877344       0.70359759E-03   0.12445317E-03    52176.600      -0.23626071E-01
  20234.552       -1.6081460       -1.5937537       -2.3666716       -1.5888407       0.15641523E-02   0.19092791E-03    52110.600      -0.17060097E-01
  20238.761       -1.5994203       -1.5949100       -2.3666292       -1.5899563       0.23022789E-02   0.92591205E-04    52016.600      -0.53463176E-02
  20242.994       -1.5887097       -1.5960495       -2.3665866       -1.5910754       0.23458230E-02  -0.79620374E-04    51995.600       0.87002319E-02
  20247.272       -1.5794545       -1.5971785       -2.3665435       -1.5922036       0.16246132E-02  -0.20240238E-03    51982.600       0.21009329E-01
  20251.596       -1.5747346       -1.5982976       -2.3665000       -1.5933409       0.60472528E-03  -0.18370056E-03    52007.600       0.27930781E-01
  20255.943       -1.5742107       -1.5994020       -2.3664562       -1.5944815       0.31675845E-04  -0.72483375E-04    52027.600       0.29860802E-01
  20260.337       -1.5744577       -1.6004980       -2.3664120       -1.5956311      -0.28830147E-04  -0.56009082E-04    52033.600       0.30867155E-01
  20264.753       -1.5744647       -1.6015809       -2.3663675       -1.5967839      -0.46176920E-03  -0.13871420E-03    52084.600       0.32142539E-01
  20269.216       -1.5785580       -1.6026572       -2.3663225       -1.5979454      -0.12605554E-02  -0.16236376E-03    52041.600       0.28566263E-01
  20273.725       -1.5857732       -1.6037276       -2.3662771       -1.5991158      -0.19183426E-02  -0.15381641E-03    52032.600       0.21282486E-01
  20278.257       -1.5959012       -1.6047881       -2.3662315       -1.6002891      -0.26511680E-02  -0.94545497E-04    51889.600       0.10534170E-01
  20282.835       -1.6099267       -1.6058449       -2.3661854       -1.6014711      -0.27797013E-02   0.52256781E-04    51784.600      -0.48384919E-02
  20287.459       -1.6214809       -1.6068990       -2.3661388       -1.6026616      -0.21702854E-02   0.11445361E-03    51727.600      -0.17284781E-01
  20292.107       -1.6300502       -1.6079468       -2.3660920       -1.6038549      -0.17184553E-02   0.10995819E-03    51690.600      -0.26200536E-01
  20296.802       -1.6375353       -1.6089946       -2.3660447       -1.6050566      -0.11430153E-02   0.19364533E-03    51576.600      -0.33831115E-01
  20301.520       -1.6408089       -1.6100388       -2.3659972       -1.6062610       0.10423903E-03   0.26352972E-03    51578.600      -0.36473748E-01
  20306.284       -1.6365468       -1.6110858       -2.3659492       -1.6074737       0.13559870E-02   0.17927365E-03    51489.600      -0.30180603E-01
  20311.095       -1.6278252       -1.6121371       -2.3659008       -1.6086945       0.18208076E-02   0.41019185E-04    51468.600      -0.18596102E-01
  20315.930       -1.6189840       -1.6131895       -2.3658521       -1.6099178       0.17516421E-02  -0.41713915E-04    51514.600      -0.68686994E-02
  20320.811       -1.6108059       -1.6142495       -2.3658029       -1.6111491       0.14155068E-02  -0.74394933E-04    51516.600       0.40819200E-02
  20325.717       -1.6051307       -1.6153134       -2.3657535       -1.6123829       0.10235485E-02  -0.81776079E-04    51484.600       0.12070225E-01
  20330.669       -1.6007161       -1.6163861       -2.3657036       -1.6136245       0.60938605E-03  -0.10438637E-03    51460.600       0.18574668E-01
  20335.645       -1.5990804       -1.6174628       -2.3656535       -1.6148683      -0.12854648E-04  -0.11042931E-03    51443.600       0.21789823E-01
  20340.690       -1.6008449       -1.6185529       -2.3656027       -1.6161254      -0.49728679E-03  -0.86662628E-04    51410.600       0.20990457E-01
  20345.738       -1.6040993       -1.6196423       -2.3655519       -1.6173791      -0.88750935E-03  -0.43307207E-04    51363.600       0.18424079E-01
  20350.854       -1.6098654       -1.6207451       -2.3655004       -1.6186458      -0.93745518E-03   0.29098464E-04    51264.600       0.12896355E-01
  20355.973       -1.6136943       -1.6218470       -2.3654488       -1.6199090      -0.58968221E-03   0.24323122E-04    51089.600       0.96639603E-02
  20361.161       -1.6159430       -1.6229624       -2.3653966       -1.6211851      -0.68676698E-03  -0.68059338E-04    51134.600       0.83205063E-02
  20366.373       -1.6208368       -1.6240816       -2.3653441       -1.6224630      -0.12975116E-02  -0.74627043E-04    51126.600       0.38463094E-02
  20371.611       -1.6295017       -1.6252047       -2.3652913       -1.6237427      -0.14665994E-02   0.54880389E-04    51085.600      -0.50934174E-02
  20376.895       -1.6362676       -1.6263364       -2.3652381       -1.6250295      -0.72008921E-03   0.13147699E-03    51032.600      -0.11772005E-01
  20382.226       -1.6371457       -1.6274767       -2.3651844       -1.6263234      -0.70914636E-04   0.56606289E-04    51023.600      -0.11461299E-01
  20387.582       -1.6370255       -1.6286208       -2.3651305       -1.6276188      -0.11511516E-03  -0.32755043E-04    51034.600      -0.99626019E-02
  20392.985       -1.6383843       -1.6297734       -2.3650761       -1.6289211      -0.42334220E-03  -0.24673895E-05    51043.600      -0.10207051E-01
  20398.414       -1.6416110       -1.6309298       -2.3650214       -1.6302248      -0.14184110E-03   0.80997724E-04    50957.600      -0.12661079E-01
  20403.889       -1.6399309       -1.6320947       -2.3649663       -1.6315353       0.45985618E-03   0.56789266E-04    50942.600      -0.92888171E-02
  20409.412       -1.6365532       -1.6332680       -2.3649106       -1.6328523       0.48276018E-03  -0.31757787E-04    50851.600      -0.38941478E-02
  20414.961       -1.6345862       -1.6344451       -2.3648548       -1.6341705       0.10826158E-03  -0.64915173E-04    50791.600      -0.16730889E-03
  20420.534       -1.6353492       -1.6356259       -2.3647986       -1.6354899      -0.23920041E-03  -0.40498501E-04    50709.600       0.32800849E-03
  20426.155       -1.6372639       -1.6368151       -2.3647420       -1.6368156      -0.34509281E-03   0.13311707E-04    50704.600      -0.53205334E-03
  20431.823       -1.6392451       -1.6380126       -2.3646849       -1.6381475      -0.88918430E-04   0.69490705E-04    50625.600      -0.14608737E-02
  20437.517       -1.6382743       -1.6392139       -2.3646276       -1.6394803       0.44449325E-03   0.53349268E-04    50557.600       0.11137939E-02
  20443.259       -1.6341620       -1.6404234       -2.3645698       -1.6408192       0.52116299E-03  -0.37551276E-04    50491.600       0.74220660E-02
  20449.026       -1.6322763       -1.6416366       -2.3645117       -1.6421588       0.12320863E-04  -0.83320799E-04    50435.600       0.11095450E-01
  20454.841       -1.6340193       -1.6428581       -2.3644531       -1.6435043      -0.44387767E-03  -0.49855658E-04    50402.600       0.10477205E-01
  20460.682       -1.6374500       -1.6440832       -2.3643943       -1.6448504      -0.56878223E-03  -0.22922739E-04    50271.600       0.78627938E-02
  20466.571       -1.6406908       -1.6453165       -2.3643350       -1.6462022      -0.71274604E-03  -0.29241207E-04    50031.600       0.54832327E-02
  20472.485       -1.6458626       -1.6465534       -2.3642754       -1.6475544      -0.91391795E-03   0.36155577E-07    50148.600       0.81891619E-03
  20478.448       -1.6515453       -1.6477985       -2.3642154       -1.6489121      -0.71231662E-03   0.54328559E-04    50190.600      -0.44413033E-02
  20484.436       -1.6543754       -1.6490471       -2.3641551       -1.6502701      -0.26464332E-03   0.62816552E-04    50156.600      -0.63159505E-02
  20490.473       -1.6547276       -1.6503038       -2.3640943       -1.6516333       0.43052413E-04   0.22990035E-04    50124.600      -0.52437788E-02
  20496.535       -1.6538545       -1.6515641       -2.3640332       -1.6529967       0.13518400E-04  -0.17115297E-04    50097.600      -0.27149515E-02
  20502.646       -1.6545630       -1.6528324       -2.3639717       -1.6543652      -0.16530219E-03  -0.20375686E-04    50038.600      -0.20514006E-02
  20508.806       -1.6558828       -1.6541089       -2.3639097       -1.6557386      -0.23650085E-03  -0.13832874E-04    50031.600      -0.21026696E-02
  20514.991       -1.6574827       -1.6553890       -2.3638474       -1.6571118      -0.33607041E-03  -0.69348963E-05    49988.600      -0.24817987E-02
  20521.203       -1.6600492       -1.6566725       -2.3637848       -1.6584849      -0.32247581E-03   0.16867752E-04    49865.600      -0.40025864E-02
  20527.464       -1.6615047       -1.6579643       -2.3637218       -1.6598626      -0.12569057E-03   0.30883207E-04    49734.600      -0.41966315E-02
  20533.750       -1.6616263       -1.6592597       -2.3636584       -1.6612400       0.65025057E-04   0.99934451E-05    49686.600      -0.28052943E-02
  20540.086       -1.6606839       -1.6605633       -2.3635946       -1.6626217       0.45119139E-06  -0.26662920E-04    49612.600      -0.14297565E-03
  20546.448       -1.6616206       -1.6618706       -2.3635306       -1.6640030      -0.27353271E-03  -0.15851903E-04    49714.600       0.29633312E-03
  20555.065       -1.6647810       -1.6636383       -2.3634438       -1.6658636      -0.23698702E-03   0.20472818E-04    99190.200      -0.13545844E-02
  20561.526       -1.6651939       -1.6649619       -2.3633787       -1.6672512       0.35155825E-04   0.38533813E-04    99042.200      -0.27500542E-03
  20568.014       -1.6643258       -1.6662892       -2.3633134       -1.6686380       0.26201199E-03   0.30335039E-04    98990.200       0.23273384E-02
  20574.552       -1.6617810       -1.6676249       -2.3632475       -1.6700287       0.43028458E-03  -0.13271836E-04    98878.200       0.69271146E-02
  20581.116       -1.6586884       -1.6689644       -2.3631814       -1.6714183       0.88131567E-04  -0.71118963E-04    98722.200       0.12180797E-01
  20587.729       -1.6606197       -1.6703124       -2.3631148       -1.6728116      -0.50689267E-03  -0.69929678E-04    98633.200       0.11489452E-01
  20594.370       -1.6654067       -1.6716643       -2.3630480       -1.6742037      -0.83870660E-03  -0.31057740E-04    98686.200       0.74175366E-02
  20601.037       -1.6717809       -1.6730201       -2.3629808       -1.6755945      -0.92019851E-03   0.15926899E-04    98705.200       0.14689798E-02
  20607.754       -1.6777228       -1.6743845       -2.3629132       -1.6769886      -0.62553811E-03   0.49446324E-04    98517.200      -0.39570612E-02
  20614.520       -1.6802153       -1.6757576       -2.3628450       -1.6783858      -0.25349048E-03   0.30052755E-04    98402.200      -0.52840516E-02
  20621.314       -1.6811602       -1.6771346       -2.3627766       -1.6797815      -0.21801403E-03  -0.10525946E-04    98205.200      -0.47717884E-02
  20628.135       -1.6831835       -1.6785158       -2.3627079       -1.6811755      -0.39679703E-03  -0.65534946E-05    98068.200      -0.55328832E-02
  20635.006       -1.6865930       -1.6799057       -2.3626387       -1.6825724      -0.30774245E-03   0.35328285E-04    97809.200      -0.79268849E-02
  20641.904       -1.6874208       -1.6812999       -2.3625693       -1.6839674       0.89635302E-04   0.36870211E-04    97729.200      -0.72554752E-02
  20648.852       -1.6853519       -1.6827028       -2.3624993       -1.6853650       0.20277429E-03  -0.37692941E-05    97660.200      -0.31401118E-02
  20655.828       -1.6845974       -1.6841101       -2.3624290       -1.6867605       0.37152292E-04  -0.22573493E-04    97520.200      -0.57754074E-03
  20662.854       -1.6848317       -1.6855264       -2.3623583       -1.6881584      -0.11328870E-03  -0.15536515E-04    97356.200       0.82340423E-03
  20669.907       -1.6861924       -1.6869470       -2.3622872       -1.6895540      -0.18159159E-03  -0.29969287E-05    97264.200       0.89452667E-03
  20676.988       -1.6873984       -1.6883722       -2.3622159       -1.6909472      -0.15564891E-03   0.83954115E-05    97171.200       0.11542252E-02
  20684.120       -1.6884046       -1.6898064       -2.3621441       -1.6923425      -0.62270629E-04   0.12532120E-04    97011.200       0.16617207E-02
  20691.302       -1.6882898       -1.6912499       -2.3620718       -1.6937396       0.23732092E-04   0.26296188E-05    96919.200       0.35088205E-02
  20698.489       -1.6880636       -1.6926934       -2.3619994       -1.6951296      -0.24484848E-04  -0.18542114E-04    96830.200       0.54880688E-02
  20705.727       -1.6886430       -1.6941463       -2.3619265       -1.6965213      -0.24373846E-03  -0.27106102E-04    96768.200       0.65234183E-02
  20713.015       -1.6916042       -1.6956085       -2.3618531       -1.6979145      -0.41824327E-03  -0.92566079E-05    96513.200       0.47464435E-02
  20720.332       -1.6947516       -1.6970752       -2.3617794       -1.6993047      -0.37893511E-03  -0.14194777E-05    96101.200       0.27543451E-02
  20727.677       -1.6971600       -1.6985463       -2.3617054       -1.7006918      -0.43905502E-03  -0.51268585E-05    96795.200       0.16432703E-02
  20735.073       -1.7012236       -1.7000261       -2.3616310       -1.7020800      -0.45450869E-03   0.84602901E-05    96580.200      -0.14193860E-02
  20742.497       -1.7038959       -1.7015098       -2.3615562       -1.7034649      -0.31367336E-03   0.85872847E-05    96343.200      -0.28282826E-02
  20749.972       -1.7058971       -1.7030018       -2.3614809       -1.7048507      -0.32656245E-03  -0.60522592E-05    96087.200      -0.34320724E-02
  20757.476       -1.7087875       -1.7044971       -2.3614053       -1.7062330      -0.40433087E-03   0.20319145E-05    96067.200      -0.50856673E-02
  20765.008       -1.7119766       -1.7059955       -2.3613295       -1.7076116      -0.29601070E-03   0.21635883E-04    96090.200      -0.70897896E-02
  20772.592       -1.7132619       -1.7075014       -2.3612531       -1.7089908      -0.77285469E-04   0.28565478E-04    96204.200      -0.68283060E-02
  20780.204       -1.7131511       -1.7090099       -2.3611765       -1.7103660       0.13806917E-03   0.21423776E-04    95895.200      -0.49087965E-02
  20787.845       -1.7111559       -1.7105207       -2.3610995       -1.7117374       0.24949525E-03  -0.53349040E-05    95615.200      -0.75299631E-03
  20795.538       -1.7093254       -1.7120381       -2.3610220       -1.7131088       0.56266043E-04  -0.30443004E-04    95375.200       0.32154884E-02
  20803.259       -1.7102886       -1.7135572       -2.3609443       -1.7144760      -0.21975687E-03  -0.22475384E-04    95413.200       0.38744237E-02
  20811.033       -1.7127305       -1.7150823       -2.3608660       -1.7158430      -0.29198643E-03   0.30681114E-05    95433.200       0.27877106E-02
  20818.835       -1.7148365       -1.7166085       -2.3607874       -1.7172056      -0.17196886E-03   0.14562539E-04    95398.200       0.21004189E-02
  20826.666       -1.7154190       -1.7181355       -2.3607085       -1.7185637      -0.64320505E-04   0.79987146E-07    95325.200       0.32200612E-02
  20834.550       -1.7158473       -1.7196676       -2.3606291       -1.7199212      -0.17071187E-03  -0.14937361E-04    95341.200       0.45283505E-02
  20842.463       -1.7181156       -1.7211997       -2.3605495       -1.7212740      -0.30027434E-03  -0.96470198E-05    95090.200       0.36557834E-02
  20850.405       -1.7206081       -1.7227317       -2.3604695       -1.7226218      -0.32366151E-03  -0.50121608E-05    94968.200       0.25173024E-02
  20858.399       -1.7232736       -1.7242676       -2.3603890       -1.7239687      -0.38014954E-03  -0.22542852E-05    94823.200       0.11783187E-02
  20866.423       -1.7266973       -1.7258027       -2.3603082       -1.7253104      -0.35977092E-03   0.47094441E-05    94302.200      -0.10605135E-02
  20874.476       -1.7290576       -1.7273365       -2.3602271       -1.7266469      -0.30443609E-03   0.33367963E-05    94658.200      -0.20401772E-02
  20882.582       -1.7316168       -1.7288730       -2.3601454       -1.7279820      -0.30585126E-03   0.53629044E-05    94592.200      -0.32523156E-02
  20890.717       -1.7340251       -1.7304076       -2.3600635       -1.7293116      -0.21733480E-03   0.14674224E-04    94472.200      -0.42880112E-02
  20898.906       -1.7351645       -1.7319441       -2.3599810       -1.7306394      -0.66309674E-04   0.12067915E-04    94472.200      -0.38173412E-02
  20907.101       -1.7351114       -1.7334735       -2.3598985       -1.7319578      -0.19621689E-04   0.71474737E-06    94277.200      -0.19415350E-02
  20915.349       -1.7354872       -1.7350040       -2.3598154       -1.7332741      -0.54557126E-04  -0.52492125E-05    94237.200      -0.57266828E-03
  20923.650       -1.7360143       -1.7365353       -2.3597318       -1.7345881      -0.10649217E-03  -0.62056277E-05    94092.200       0.61750873E-03
  20931.958       -1.7372559       -1.7380581       -2.3596482       -1.7358925      -0.15762695E-03  -0.62021469E-05    93914.200       0.95094779E-03
  20940.319       -1.7386418       -1.7395808       -2.3595640       -1.7371943      -0.20987650E-03  -0.28388269E-05    93840.200       0.11130705E-02
  20948.734       -1.7407768       -1.7411028       -2.3594792       -1.7384934      -0.20525109E-03   0.53848272E-05    93666.200       0.38646333E-03
  20957.155       -1.7420975       -1.7426152       -2.3593944       -1.7397825      -0.11921593E-03   0.79302065E-05    93483.200       0.61369300E-03
  20965.631       -1.7427912       -1.7441262       -2.3593091       -1.7410686      -0.71256053E-04  -0.81324415E-06    93411.200       0.15824979E-02
  20974.136       -1.7433075       -1.7456320       -2.3592234       -1.7423480      -0.13302547E-03  -0.89094340E-05    93385.200       0.27554577E-02
  20982.696       -1.7450612       -1.7471376       -2.3591372       -1.7436241      -0.22329581E-03  -0.57461472E-05    93206.200       0.24612318E-02
  20991.286       -1.7471369       -1.7486394       -2.3590507       -1.7448933      -0.23156856E-03  -0.22418393E-05    93076.200       0.17810443E-02
  20999.906       -1.7490467       -1.7501382       -2.3589639       -1.7461553      -0.26187905E-03  -0.38666193E-05    93036.200       0.12938774E-02
  21008.557       -1.7516600       -1.7516348       -2.3588767       -1.7474102      -0.29835192E-03  -0.13891810E-05    92903.200      -0.29898750E-04
  21017.263       -1.7542251       -1.7531339       -2.3587891       -1.7486612      -0.28599062E-03   0.15563050E-05    92674.200      -0.12934287E-02
  21025.999       -1.7566482       -1.7546323       -2.3587011       -1.7499046      -0.27120721E-03   0.52336763E-05    92260.200      -0.23895139E-02
  21034.766       -1.7589721       -1.7561309       -2.3586128       -1.7511405      -0.19438297E-03   0.86046198E-05    92242.200      -0.33679445E-02
  21043.564       -1.7600626       -1.7576303       -2.3585242       -1.7523686      -0.12006397E-03   0.64861058E-05    92292.200      -0.28830790E-02
  21052.417       -1.7610914       -1.7591356       -2.3584350       -1.7535922      -0.79896911E-04   0.38372535E-05    92089.200      -0.23182642E-02
  21061.301       -1.7614797       -1.7606436       -2.3583456       -1.7548078      -0.52003484E-04   0.14590875E-05    91922.200      -0.99106800E-03
  21070.216       -1.7620170       -1.7621551       -2.3582558       -1.7560152      -0.53926422E-04  -0.26770312E-05    91749.200       0.16373190E-03
  21079.187       -1.7624442       -1.7636751       -2.3581655       -1.7572175      -0.99882990E-04  -0.74783862E-05    91572.200       0.14591364E-02
  21088.188       -1.7638121       -1.7652006       -2.3580748       -1.7584114      -0.18832544E-03  -0.65873865E-05    91562.200       0.16459023E-02
  21097.221       -1.7658405       -1.7667324       -2.3579838       -1.7595968      -0.21868341E-03  -0.77578028E-06    91300.200       0.10571922E-02
  21106.286       -1.7677697       -1.7682716       -2.3578925       -1.7607734      -0.20236514E-03   0.22872834E-05    91024.200       0.59495910E-03
  21115.382       -1.7695156       -1.7698192       -2.3578009       -1.7619413      -0.17714481E-03   0.11866323E-05    90916.200       0.35982682E-03
  21124.533       -1.7710022       -1.7713802       -2.3577088       -1.7631032      -0.18071177E-03   0.72005408E-06    90678.200       0.44810949E-03
  21133.717       -1.7728290       -1.7729517       -2.3576163       -1.7642560      -0.16394261E-03   0.69718700E-06    90628.200       0.14550728E-03
  21142.932       -1.7740185       -1.7745348       -2.3575235       -1.7653996      -0.16788447E-03  -0.72548024E-06    90515.200       0.61198630E-03
  21152.203       -1.7759325       -1.7761346       -2.3574301       -1.7665366      -0.17735407E-03  -0.85490098E-07    90464.200       0.23954570E-03
  21161.482       -1.7773085       -1.7777441       -2.3573367       -1.7676613      -0.16947033E-03  -0.13800022E-05    90355.200       0.51640417E-03
  21170.818       -1.7790871       -1.7793727       -2.3572427       -1.7687791      -0.20304208E-03  -0.22995593E-05    90094.200       0.33850692E-03
  21180.185       -1.7811059       -1.7810174       -2.3571483       -1.7698871      -0.21247819E-03  -0.57016359E-06    89915.200      -0.10487270E-03
  21189.609       -1.7830798       -1.7826837       -2.3570534       -1.7709879      -0.21375606E-03   0.18904599E-05    89928.200      -0.46954512E-03
  21199.041       -1.7851364       -1.7843643       -2.3569584       -1.7720758      -0.17683218E-03   0.30508486E-05    89883.200      -0.91522056E-03
  21208.529       -1.7864256       -1.7860690       -2.3568629       -1.7731562      -0.15603221E-03   0.73223896E-06    89855.200      -0.42264932E-03
  21218.050       -1.7881025       -1.7877949       -2.3567670       -1.7742261      -0.16291265E-03   0.54425166E-06    89902.200      -0.36466372E-03
  21227.604       -1.7895331       -1.7895432       -2.3566708       -1.7752854      -0.14565075E-03   0.17358387E-05    89633.200       0.11906114E-04
  21237.190       -1.7908903       -1.7913152       -2.3565742       -1.7763341      -0.12968858E-03  -0.11443927E-05    89779.200       0.50363453E-03
  21246.834       -1.7920270       -1.7931168       -2.3564771       -1.7773744      -0.16765699E-03  -0.29099746E-05    89705.200       0.12918238E-02
  21256.486       -1.7941253       -1.7941253       -2.3563799       -1.7784012      -0.18583735E-03   0.24311453E-06    89574.200        0.0000000
  21266.195       -1.7956250       -1.7956250       -2.3562821       -1.7794193      -0.16295001E-03  -0.11059023E-06    89422.200        0.0000000
  21275.937       -1.7972949       -1.7972949       -2.3561840       -1.7804261      -0.18798847E-03  -0.14425082E-06    89147.200        0.0000000
  21285.712       -1.7992941       -1.7992941       -2.3560856       -1.7814214      -0.16576542E-03   0.30416402E-05    88919.200        0.0000000
  21295.545       -1.8005452       -1.8005452       -2.3559865       -1.7824075      -0.12834802E-03   0.13357595E-05    88353.200        0.0000000
  21305.387       -1.8018192       -1.8018192       -2.3558874       -1.7833794      -0.13948497E-03  -0.16780906E-05    88752.200        0.0000000
  21315.286       -1.8032988       -1.8032988       -2.3557877       -1.7843417      -0.16147571E-03  -0.10936495E-05    88559.200        0.0000000
  21325.219       -1.8050217       -1.8050217       -2.3556877       -1.7852918      -0.16117467E-03  -0.87400390E-06    88448.200        0.0000000
  21335.186       -1.8065061       -1.8065061       -2.3555873       -1.7862297      -0.17886795E-03  -0.12722638E-05    88270.200        0.0000000
  21345.186       -1.8085931       -1.8085931       -2.3554866       -1.7871551      -0.18657766E-03   0.14348336E-06    88153.200        0.0000000
  21355.220       -1.8102440       -1.8102440       -2.3553856       -1.7880679      -0.17599338E-03   0.11662999E-05    88039.200        0.0000000
  21365.312       -1.8121352       -1.8121352       -2.3552839       -1.7889702      -0.16310459E-03   0.17054213E-05    87832.200        0.0000000
  21375.414       -1.8135377       -1.8135377       -2.3551822       -1.7898573      -0.14155430E-03   0.16354877E-05    87636.200        0.0000000
  21385.574       -1.8150033       -1.8150033       -2.3550799       -1.7907335      -0.12996655E-03  -0.84535152E-06    87571.200        0.0000000
  21395.768       -1.8161831       -1.8161831       -2.3549772       -1.7915965      -0.15876091E-03  -0.24244484E-05    87363.200        0.0000000
  21405.997       -1.8182457       -1.8182457       -2.3548742       -1.7924460      -0.17948043E-03   0.34928756E-06    87127.200        0.0000000
  21416.259       -1.8198609       -1.8198609       -2.3547709       -1.7932819      -0.15160357E-03   0.53255737E-06    86836.200        0.0000000
  21426.556       -1.8213626       -1.8213626       -2.3546672       -1.7941041      -0.16853108E-03  -0.85718218E-06    86629.200        0.0000000
  21436.888       -1.8233375       -1.8233375       -2.3545631       -1.7949123      -0.16928621E-03   0.12304987E-05    86414.200        0.0000000
  21447.279       -1.8248706       -1.8248706       -2.3544585       -1.7957084      -0.14303226E-03   0.16197911E-05    86399.200        0.0000000
  21457.680       -1.8263114       -1.8263114       -2.3543537       -1.7964883      -0.13560819E-03  -0.29575259E-06    86273.200        0.0000000
  21468.140       -1.8276996       -1.8276996       -2.3542484       -1.7972556      -0.14920196E-03  -0.11445204E-05    86030.200        0.0000000
  21478.635       -1.8294379       -1.8294379       -2.3541427       -1.7980083      -0.15959183E-03   0.80077183E-06    85735.200        0.0000000
  21489.165       -1.8310550       -1.8310550       -2.3540366       -1.7987462      -0.13236573E-03   0.88025140E-06    85600.200        0.0000000
  21499.730       -1.8322302       -1.8322302       -2.3539302       -1.7994692      -0.14102292E-03  -0.17748970E-05    85555.200        0.0000000
  21510.330       -1.8340398       -1.8340398       -2.3538235       -1.8001770      -0.16993176E-03  -0.84450296E-06    85265.200        0.0000000
  21520.965       -1.8358388       -1.8358388       -2.3537164       -1.8008695      -0.15895640E-03   0.99222713E-06    84984.200        0.0000000
  21531.636       -1.8374265       -1.8374265       -2.3536089       -1.8015465      -0.14879130E-03   0.95261852E-06    84828.200        0.0000000
