# XDI/1.0 Hephaestus/0.9.26
# Element.edge:                  K
# Element.symbol:                Nb
# Column.1:                      energy eV
# Column.2:                      xmu
# Column.3:                      bkg
# Column.4:                      pre_edge
# Column.5:                      post_edge
# Column.6:                      der
# Column.7:                      sec
# Column.8:                      i0
# Column.9:                      chi(e)
# Athena.e0:                     18978.50636
# Athena.eshift:                 0
# Athena.rbkg:                   1
# Athena.importance:             1
# Athena.standard:               None
# Athena.bkg_kweight:            2
# Athena.edge_step:              1.1685428
# Athena.fixed_step:             no
# Athena.pre_edge_range:         -150.000 -45.000
# Athena.pre_edge_line:          -0.522419 - 1.90784e-005 * E
# Athena.normalization_range:    100.000 1000.000
# Athena.post_edge_polynomial:   35.885880 - 0.0034268 * E + 8.17185441e-008 * E^2 + 0 * E^3
# Athena.spline_range_energy:    0.000 1234.435
# Athena.clamps:                 0 24
# Athena.spline_range_k:         0.000 18.000
# Athena.kweight:                1
# Athena.window:                 hanning
# Athena.phase_correction:       no
# Athena.k_range:                3.000 17.000
# Athena.dk:                     1
# Athena.r_range:                1 3
# Athena.dr:                     0.0
# Athena.window:                 hanning
# Athena.plot_multiplier:        1
# Athena.y_offset:               0
# ///
#------------------------
#   e         xmu        bkg        pre_edge        post_edge        der        sec        i0        chie
  18785.997      -0.87825322      -0.87825322      -0.88082538       0.34964017      -0.87867035E-04   0.22654694E-05    67722.000        0.0000000
  18795.997      -0.87913195      -0.87913195      -0.88101618       0.34608341      -0.65210846E-04   0.20749478E-05    67599.000        0.0000000
  18806.009      -0.87955822      -0.87955822      -0.88120718       0.34253921      -0.46343159E-04  -0.17766996E-05    67332.000        0.0000000
  18815.993      -0.88005861      -0.88005861      -0.88139767       0.33902086      -0.10073738E-03   0.49456454E-06    67059.000        0.0000000
  18826.007      -0.88157280      -0.88157280      -0.88158871       0.33550847      -0.36452664E-04   0.18297284E-04    67018.000        0.0000000
  18835.994      -0.88078770      -0.88078770      -0.88177925       0.33202188       0.26522441E-03  -0.47582606E-05    66565.000        0.0000000
  18845.991      -0.87627242      -0.87627242      -0.88196999       0.32854790      -0.13154427E-03  -0.34264953E-04    64780.000        0.0000000
  18856.000      -0.88341935      -0.88341935      -0.88216093       0.32508658      -0.42027510E-03   0.41449564E-05    66543.000        0.0000000
  18866.000      -0.88468140      -0.88468140      -0.88235171       0.32164445      -0.48610776E-04   0.20617850E-04    66701.000        0.0000000
  18875.991      -0.88439117      -0.88439117      -0.88254234       0.31822149      -0.80875779E-05   0.15478271E-05    66333.000        0.0000000
  18885.994      -0.88484311      -0.88484311      -0.88273317       0.31481124      -0.17663321E-04   0.75686074E-06    66076.000        0.0000000
  18896.007      -0.88474471      -0.88474471      -0.88292420       0.31141372       0.70613076E-05   0.18271280E-05    65886.000        0.0000000
  18905.993      -0.88470189      -0.88470189      -0.88311471       0.30804180       0.18876974E-04   0.46830791E-05    65618.000        0.0000000
  18916.008      -0.88436715      -0.88436715      -0.88330579       0.30467624       0.10072790E-03   0.12017022E-04    65450.000        0.0000000
  18925.996      -0.88268700      -0.88268700      -0.88349634       0.30133623       0.25925682E-03   0.13104222E-04    65292.000        0.0000000
  18935.994      -0.87918552      -0.87918552      -0.88368710       0.29800899       0.36263504E-03   0.22741586E-04    64922.000        0.0000000
  18946.004      -0.87543151      -0.87543151      -0.88387805       0.29469459       0.71426342E-03   0.73933870E-04    64922.000        0.0000000
  18956.004      -0.86489322      -0.86489322      -0.88406885       0.29139934       0.18420399E-02   0.96244161E-04    64648.000        0.0000000
  18965.996      -0.83860385      -0.83860385      -0.88425949       0.28812323       0.26384604E-02   0.17359853E-03    64445.000        0.0000000
  18966.493      -0.83721788      -0.83721788      -0.88426897       0.28796069       0.36629497E-02   0.33085072E-02    64411.000        0.0000000
  18966.991      -0.83496262      -0.83496262      -0.88427845       0.28779819       0.59273482E-02   0.26778664E-02    64405.000        0.0000000
  18967.507      -0.83121206      -0.83121206      -0.88428830       0.28762948       0.63762710E-02   0.32559848E-03    64360.000        0.0000000
  18968.004      -0.82850161      -0.82850161      -0.88429778       0.28746704       0.62572739E-02   0.99122122E-03    64360.000        0.0000000
  18968.501      -0.82499095      -0.82499095      -0.88430727       0.28730464       0.73617629E-02   0.19883341E-02    64383.000        0.0000000
  18968.998      -0.82118203      -0.82118203      -0.88431675       0.28714227       0.82342149E-02   0.55794292E-03    64319.000        0.0000000
  18969.495      -0.81680342      -0.81680342      -0.88432624       0.28697993       0.79165423E-02  -0.96441237E-03    64341.000        0.0000000
  18969.992      -0.81330998      -0.81330998      -0.88433572       0.28681763       0.72752225E-02   0.40973143E-02    64309.000        0.0000000
  18970.509      -0.80942955      -0.80942955      -0.88434557       0.28664911       0.12069416E-01   0.47450293E-02    64316.000        0.0000000
  18971.006      -0.80107617      -0.80107617      -0.88435506       0.28648687       0.12084879E-01   0.27333605E-02    64294.000        0.0000000
  18971.503      -0.79741065      -0.79741065      -0.88436455       0.28632466       0.14787853E-01   0.44013757E-02    64299.000        0.0000000
  18972.001      -0.78636832      -0.78636832      -0.88437404       0.28616248       0.16462443E-01   0.65216928E-02    64255.000        0.0000000
  18972.498      -0.78103645      -0.78103645      -0.88438352       0.28600034       0.21274589E-01   0.55758894E-02    64283.000        0.0000000
  18972.995      -0.76520649      -0.76520649      -0.88439301       0.28583822       0.22008781E-01   0.50985038E-02    64254.000        0.0000000
  18973.493      -0.75914322      -0.75914322      -0.88440250       0.28567614       0.26346326E-01   0.16187675E-01    64275.000        0.0000000
  18974.009      -0.73849316      -0.73849316      -0.88441236       0.28550786       0.38421950E-01   0.14845006E-01    64249.000        0.0000000
  18974.507      -0.72018374      -0.72018374      -0.88442185       0.28534584       0.41399014E-01   0.60613652E-02    64221.000        0.0000000
  18975.004      -0.69730487      -0.69730487      -0.88443134       0.28518385       0.44452463E-01   0.14916032E-01    64205.000        0.0000000
  18975.502      -0.67595532      -0.67595532      -0.88444083       0.28502190       0.56239869E-01   0.17725412E-01    64242.000        0.0000000
  18975.999      -0.64134564      -0.64134564      -0.88445032       0.28485998       0.62089425E-01   0.10854558E-01    64220.000        0.0000000
  18976.497      -0.61417200      -0.61417200      -0.88445981       0.28469809       0.67040914E-01   0.80168275E-02    64211.000        0.0000000
  18976.994      -0.57463188      -0.57463188      -0.88446931       0.28453623       0.70067130E-01  -0.40715755E-02    64208.000        0.0000000
  18977.492      -0.54444329      -0.54444329      -0.88447880       0.28437441       0.62989004E-01   0.15826447E-01    64190.000        0.0000000
  18978.009      -0.51073835      -0.51073835      -0.88448866       0.28420639       0.86120845E-01   0.10975476E-01    64172.000        0.0000000
  18978.506      -0.45708058      -0.80015629      -0.88449815       0.28404463       0.74122747E-01  -0.16095240E-01    64136.000       0.29359276
  18979.004      -0.43696176      -0.86820928      -0.88450765       0.28388290       0.70100770E-01  -0.10848626E-01    64150.000       0.36904726
  18979.502      -0.38730368      -0.78091080      -0.88451714       0.28372120       0.63324242E-01  -0.17696051E-01    64120.000       0.33683586
  18979.999      -0.37392628      -0.69817683      -0.88452664       0.28355954       0.52485412E-01  -0.12118902E-01    64140.000       0.27748282
  18980.497      -0.33505498      -0.61988294      -0.88453614       0.28339791       0.51259996E-01  -0.10912082E-01    64153.000       0.24374628
  18980.995      -0.32289490      -0.54590791      -0.88454563       0.28323631       0.41621997E-01  -0.11756796E-01    64132.000       0.19084710
  18981.493      -0.29361653      -0.47612741      -0.88455513       0.28307474       0.39555047E-01  -0.43655046E-02    64137.000       0.15618673
  18981.991      -0.28351231      -0.41041997      -0.88456463       0.28291320       0.37275526E-01   0.22812600E-02    64106.000       0.10860334
  18982.508      -0.25578746      -0.34636191      -0.88457449       0.28274548       0.41870184E-01   0.80057852E-03    64118.000       0.77510591E-01
  18983.006      -0.24101826      -0.28857533      -0.88458399       0.28258401       0.38088034E-01  -0.90564464E-04    64085.000       0.40697749E-01
  18983.503      -0.21785940      -0.23448592      -0.88459349       0.28242257       0.41780000E-01   0.71103188E-02    64134.000       0.14228423E-01
  18984.001      -0.19941123      -0.18397294      -0.88460299       0.28226117       0.45168916E-01   0.73178998E-02    64137.000      -0.13211574E-01
  18984.499      -0.17287522      -0.13691231      -0.88461249       0.28209979       0.49067970E-01   0.43305021E-02    64154.000      -0.30775861E-01
  18984.997      -0.15054150      -0.93181870E-01  -0.88462199       0.28193845       0.49481923E-01   0.13409847E-02    64119.000      -0.49086459E-01
  18985.495      -0.12359073      -0.52657591E-01  -0.88463149       0.28177714       0.50403604E-01   0.52794270E-02    64096.000      -0.60702221E-01
  18985.993      -0.10033598      -0.15216390E-01  -0.88464099       0.28161586       0.54740601E-01   0.10125718E-01    64107.000      -0.72842510E-01
  18986.492      -0.69062527E-01   0.19264202E-01  -0.88465050       0.28145461       0.60490034E-01  -0.86556980E-02    64123.000      -0.75587072E-01
  18987.009      -0.38918634E-01   0.52070337E-01  -0.88466037       0.28128719       0.45952212E-01  -0.52070289E-03    64053.000      -0.77865330E-01
  18987.507      -0.22403111E-01   0.80898852E-01  -0.88466987       0.28112601       0.59961318E-01   0.13992970E-01    64045.000      -0.88402378E-01
  18988.005       0.20819628E-01   0.10714143      -0.88467937       0.28096486       0.59893127E-01   0.14343403E-02    64064.000      -0.73871325E-01
  18988.503       0.37270209E-01   0.13092198      -0.88468888       0.28080374       0.61390394E-01   0.31143679E-02    64044.000      -0.80144067E-01
  18989.001       0.81987789E-01   0.15236343      -0.88469838       0.28064266       0.62996221E-01   0.18103601E-02    64027.000      -0.60225130E-01
  18989.500       0.10004153       0.17158966      -0.88470789       0.28048161       0.63194291E-01  -0.10776145E-02    64023.000      -0.61228504E-01
  18989.998       0.14496027       0.18872410      -0.88471739       0.28032058       0.61922389E-01  -0.43350389E-02    63975.000      -0.37451626E-01
  18990.496       0.16174967       0.20388992      -0.88472690       0.28015959       0.58874252E-01  -0.63835109E-02    63979.000      -0.36062219E-01
  18990.995       0.20363376       0.21721100      -0.88473641       0.27999864       0.55560646E-01  -0.12803587E-01    63955.000      -0.11618947E-01
  18991.493       0.21712419       0.22881088      -0.88474591       0.27983771       0.46113557E-01  -0.10446580E-01    63975.000      -0.10001079E-01
  18991.991       0.24959514       0.23881298      -0.88475542       0.27967682       0.45148540E-01  -0.14315571E-01    63925.000       0.92270170E-02
  18992.509       0.26299149       0.24764143      -0.88476530       0.27950977       0.31570082E-01  -0.17599849E-01    63952.000       0.13136073E-01
  18993.007       0.28166971       0.25476992      -0.88477481       0.27934894       0.27267445E-01  -0.14250682E-01    63953.000       0.23019948E-01
  18993.506       0.29017332       0.26067656      -0.88478431       0.27918815       0.17364148E-01  -0.16337122E-01    63903.000       0.25242345E-01
  18994.004       0.29898021       0.26548527      -0.88479382       0.27902738       0.10980805E-01  -0.15058793E-01    63910.000       0.28663854E-01
  18994.503       0.30112074       0.26931978      -0.88480334       0.27886665       0.23511338E-02  -0.12967484E-01    63901.000       0.27214208E-01
  18995.001       0.30132433       0.27230409      -0.88481285       0.27870595      -0.19480360E-02  -0.85564208E-02    63864.000       0.24834557E-01
  18995.500       0.29917841       0.27456194      -0.88482236       0.27854529      -0.61802167E-02  -0.83470761E-02    63835.000       0.21065960E-01
  18995.998       0.29516191       0.27621741      -0.88483187       0.27838465      -0.10271073E-01  -0.74914994E-02    63876.000       0.16212079E-01
  18996.497       0.28893631       0.27739440      -0.88484138       0.27822405      -0.13650590E-01  -0.29402485E-02    63824.000       0.98771771E-02
  18996.995       0.28154927       0.27821696      -0.88485090       0.27806348      -0.13203147E-01   0.11179310E-02    63777.000       0.28516838E-02
  18997.494       0.27576907       0.27880917      -0.88486041       0.27790294      -0.12535700E-01   0.13014710E-02    63806.000      -0.26016144E-02
  18997.993       0.26904704       0.27929475      -0.88486992       0.27774243      -0.11905151E-01   0.46302472E-02    63779.000      -0.87696453E-02
  18998.492       0.26389511       0.27975800      -0.88487944       0.27758196      -0.79175838E-02   0.50667540E-02    63739.000      -0.13574930E-01
  18999.009       0.26099787       0.28022456      -0.88488932       0.27741535      -0.67541877E-02   0.27773092E-02    63774.000      -0.16453565E-01
  18999.508       0.25702833       0.28066003      -0.88489883       0.27725494      -0.50939769E-02   0.47256481E-02    63736.000      -0.20223219E-01
  19000.007       0.25591637       0.28108205      -0.88490835       0.27709456      -0.20401174E-02   0.50595438E-02    63722.000      -0.21535951E-01
  19000.506       0.25499311       0.28149076      -0.88491787       0.27693422      -0.46576033E-04   0.60225960E-02    63649.000      -0.22675802E-01
  19001.005       0.25586991       0.28188626      -0.88492738       0.27677390       0.39683255E-02   0.48503327E-02    63679.000      -0.22263933E-01
  19001.503       0.25895231       0.28226870      -0.88493690       0.27661363       0.47926009E-02   0.16030236E-02    63667.000      -0.19953389E-01
  19002.002       0.26065172       0.28263819      -0.88494642       0.27645338       0.55677424E-02   0.17417792E-03    63652.000      -0.18815281E-01
  19002.501       0.26450786       0.28299485      -0.88495594       0.27629316       0.49663973E-02  -0.76973262E-03    63653.000      -0.15820553E-01
  19003.000       0.26560749       0.28333881      -0.88496546       0.27613298       0.47996570E-02   0.30121051E-03    63620.000      -0.15173871E-01
  19003.499       0.26929748       0.28367020      -0.88497498       0.27597283       0.52669783E-02  -0.12447678E-02    63596.000      -0.12299688E-01
  19003.998       0.27086378       0.28398913      -0.88498450       0.27581271       0.35574161E-02  -0.22289105E-02    63638.000      -0.11232235E-01
  19004.497       0.27284786       0.28429572      -0.88499402       0.27565262       0.30424811E-02  -0.13897299E-02    63545.000      -0.97967044E-02
  19004.996       0.27390039       0.28459012      -0.88500354       0.27549257       0.21703684E-02  -0.22009319E-02    63558.000      -0.91479122E-02
  19005.495       0.27501414       0.28487242      -0.88501306       0.27533255       0.84568691E-03  -0.66727970E-03    63563.000      -0.84363846E-02
  19007.242       0.27579984       0.28576712      -0.88504639       0.27477273       0.67163147E-03   0.41627408E-03    127052.00      -0.85296714E-02
  19008.510       0.27703858       0.28632737      -0.88507056       0.27436695       0.21004202E-02   0.13717125E-02    126943.00      -0.79490448E-02
  19009.835       0.28124465       0.28683588      -0.88509584       0.27394295       0.42274531E-02   0.14958344E-02    126919.00      -0.47847858E-02
  19011.179       0.28832347       0.28727343      -0.88512149       0.27351304       0.60934455E-02   0.10707361E-02    126848.00       0.89858284E-03
  19012.581       0.29798115       0.28764832      -0.88514825       0.27306495       0.71683798E-02   0.43714674E-03    126876.00       0.88424896E-02
  19014.003       0.30856611       0.28794629      -0.88517537       0.27261099       0.73278954E-02   0.23350199E-04    126866.00       0.17645757E-01
  19015.463       0.31909978       0.28816930      -0.88520323       0.27214503       0.72356739E-02  -0.53909922E-03    126773.00       0.26469272E-01
  19016.962       0.32997835       0.28831396      -0.88523183       0.27166709       0.57325606E-02  -0.14674252E-02    126784.00       0.35654999E-01
  19018.519       0.33661745       0.28837744      -0.88526153       0.27117109       0.27514867E-02  -0.24195763E-02    126717.00       0.41282195E-01
  19020.095       0.33859934       0.28835550      -0.88529160       0.27066927      -0.18484799E-02  -0.30459353E-02    126692.00       0.42996997E-01
  19021.710       0.33071820       0.28824717      -0.88532241       0.27015556      -0.69693417E-02  -0.26203327E-02    126676.00       0.36345287E-01
  19023.345       0.31595155       0.28805337      -0.88535360       0.26963607      -0.10363592E-01  -0.10620420E-02    126631.00       0.23874335E-01
  19025.037       0.29623718       0.28776815      -0.88538589       0.26909862      -0.10502893E-01   0.73633391E-03    126429.00       0.72475097E-02
  19026.769       0.27999070       0.28739246      -0.88541892       0.26854933      -0.78424581E-02   0.16171205E-02    126408.00      -0.63341791E-02
  19028.539       0.26877689       0.28692599      -0.88545269       0.26798824      -0.48405622E-02   0.17541576E-02    126312.00      -0.15531392E-01
  19030.329       0.26275897       0.28637539      -0.88548684       0.26742147      -0.15979025E-02   0.16219212E-02    126194.00      -0.20210141E-01
  19032.177       0.26296449       0.28572972      -0.88552209       0.26683684       0.10592086E-02   0.10883081E-02    125991.00      -0.19481724E-01
  19034.044       0.26669418       0.28500394      -0.88555772       0.26624658       0.24454123E-02   0.26841462E-03    125933.00      -0.15668885E-01
  19035.950       0.27219279       0.28419390      -0.88559409       0.26564462       0.20721302E-02  -0.50963406E-03    125946.00      -0.10270154E-01
  19037.915       0.27471492       0.28329340      -0.88563157       0.26502492       0.47273604E-03  -0.75571892E-03    125885.00      -0.73411834E-02
  19039.899       0.27405944       0.28232386      -0.88566942       0.26439964      -0.91191664E-03  -0.64955260E-03    125767.00      -0.70724161E-02
  19041.922       0.27106064       0.28128134      -0.88570802       0.26376275      -0.21301836E-02  -0.40971824E-03    125793.00      -0.87465361E-02
  19043.984       0.26535728       0.28017128      -0.88574736       0.26311428      -0.25856853E-02   0.95221376E-04    125680.00      -0.12677325E-01
  19046.085       0.26029602       0.27900004      -0.88578744       0.26245426      -0.17337618E-02   0.61057742E-03    125532.00      -0.16006284E-01
  19048.225       0.25800405       0.27777501      -0.88582827       0.26178272       0.38956607E-05   0.96046247E-03    125431.00      -0.16919329E-01
  19050.404       0.26031284       0.27650456      -0.88586985       0.26109970       0.24147445E-02   0.98985465E-03    125394.00      -0.13856332E-01
  19052.603       0.26857612       0.27520955      -0.88591180       0.26041125       0.43376080E-02   0.56189405E-03    125214.00      -0.56766696E-02
  19054.861       0.27964261       0.27387777      -0.88595487       0.25970535       0.49187242E-02  -0.22226025E-03    125126.00       0.49333566E-02
  19057.138       0.29088037       0.27254328      -0.88599831       0.25899408       0.33297556E-02  -0.10296349E-02    125058.00       0.15692271E-01
  19059.474       0.29500231       0.27118974      -0.88604287       0.25826544       0.16916269E-03  -0.13851451E-02    124997.00       0.20378004E-01
  19061.829       0.29167394       0.26984034      -0.88608781       0.25753149      -0.31682512E-02  -0.11435717E-02    124919.00       0.18684472E-01
  19064.224       0.27995213       0.26848443      -0.88613350       0.25678626      -0.52631573E-02  -0.32260583E-03    124744.00       0.98136798E-02
  19066.658       0.26625942       0.26712259      -0.88617994       0.25602978      -0.47260373E-02   0.49605162E-03    124782.00      -0.73867408E-03
  19069.131       0.25676014       0.26575541      -0.88622713       0.25526208      -0.28288931E-02   0.77549590E-03    124683.00      -0.76978484E-02
  19071.644       0.25215496       0.26438346      -0.88627506       0.25448320      -0.85952332E-03   0.61790944E-03    124464.00      -0.10464750E-01
  19074.196       0.25240709       0.26300732      -0.88632375       0.25369319       0.30050923E-03   0.20062100E-03    124404.00      -0.90713242E-02
  19076.768       0.25369473       0.26163778      -0.88637282       0.25289805       0.16843260E-03  -0.78866761E-04    124322.00      -0.67973976E-02
  19079.398       0.25328338       0.26025480      -0.88642301       0.25208587      -0.10980535E-03  -0.10631599E-04    124191.00      -0.59659055E-02
  19082.049       0.25311480       0.25887927      -0.88647358       0.25126864       0.11228245E-03   0.13021861E-03    124134.00      -0.49330440E-02
  19084.759       0.25388525       0.25749165      -0.88652527       0.25043447       0.58820938E-03   0.23644031E-03    124133.00      -0.30862314E-02
  19087.488       0.25631423       0.25611228      -0.88657735       0.24959530       0.13983475E-02   0.24327854E-03    124086.00       0.17282282E-03
  19090.258       0.26157467       0.25473172      -0.88663018       0.24874524       0.19259811E-02   0.52635324E-04    124065.00       0.58559671E-02
  19093.066       0.26705735       0.25335046      -0.88668377       0.24788431       0.16919474E-02  -0.17526521E-03    123983.00       0.11729900E-01
  19095.915       0.27114628       0.25196900      -0.88673811       0.24701256       0.93447771E-03  -0.40098297E-03    123851.00       0.16411280E-01
  19098.803       0.27241786       0.25058783      -0.88679321       0.24613004      -0.60823935E-03  -0.53388602E-03    123830.00       0.18681416E-01
  19101.711       0.26762078       0.24921648      -0.88684869       0.24524271      -0.21600591E-02  -0.37607247E-03    123619.00       0.15749782E-01
  19104.678       0.25972620       0.24783713      -0.88690531       0.24433877      -0.28178945E-02  -0.16997967E-03    123526.00       0.10174272E-01
  19107.666       0.25084016       0.24646824      -0.88696231       0.24343009      -0.31722915E-02  -0.57610951E-04    123469.00       0.37413454E-02
  19110.713       0.24058294       0.24509245      -0.88702044       0.24250492      -0.31655490E-02   0.18320979E-03    123350.00      -0.38590836E-02
  19113.780       0.23148574       0.24372769      -0.88707895       0.24157510      -0.20521322E-02   0.33240658E-03    123172.00      -0.10476257E-01
  19116.887       0.22791246       0.24236553      -0.88713823       0.24063476      -0.11131710E-02   0.19926974E-03    123225.00      -0.12368456E-01
  19120.034       0.22452396       0.24100633      -0.88719827       0.23968396      -0.80589722E-03   0.13940515E-03    123056.00      -0.14105067E-01
  19123.221       0.22280808       0.23965044      -0.88725907       0.23872276      -0.23020809E-03   0.20422741E-03    122940.00      -0.14413129E-01
  19126.428       0.22305196       0.23830626      -0.88732026       0.23775704       0.49997576E-03   0.19659392E-03    122820.00      -0.13054120E-01
  19129.695       0.22604500       0.23695780      -0.88738259       0.23677516       0.10425704E-02   0.62671952E-04    122703.00      -0.93388152E-02
  19132.982       0.22988513       0.23562141      -0.88744530       0.23578886       0.91073776E-03  -0.92127532E-04    122639.00      -0.49089135E-02
  19136.310       0.23206934       0.23428925      -0.88750878       0.23479234       0.43316616E-03  -0.12917532E-03    122467.00      -0.18997300E-02
  19139.677       0.23278515       0.23296156      -0.88757303       0.23378565       0.45916762E-04  -0.30678779E-04    122378.00      -0.15096624E-03
  19143.085       0.23238043       0.23163855      -0.88763804       0.23276885       0.22531191E-03   0.18317486E-03    122249.00       0.63487274E-03
  19146.533       0.23432978       0.23032040      -0.88770382       0.23174198       0.13016739E-02   0.32307586E-03    122102.00       0.34310954E-02
  19150.021       0.24140875       0.22900725      -0.88777037       0.23070512       0.24661435E-02   0.11144477E-03    121993.00       0.10612785E-01
  19153.530       0.25158521       0.22770642      -0.88783731       0.22966408       0.20814451E-02  -0.27377560E-03    121884.00       0.20434679E-01
  19157.098       0.25614020       0.22640356      -0.88790540       0.22860736       0.52849395E-03  -0.45383997E-03    121695.00       0.25447623E-01
  19160.688       0.25536826       0.22511309      -0.88797388       0.22754658      -0.11672140E-02  -0.49527304E-03    121401.00       0.25891361E-01
  19164.318       0.24771362       0.22382800      -0.88804313       0.22647600      -0.30470753E-02  -0.45347080E-03    121381.00       0.20440521E-01
  19167.988       0.23312394       0.22254840      -0.88811316       0.22539568      -0.44776506E-02  -0.21836348E-03    121441.00       0.90501903E-02
  19171.679       0.21475091       0.22128106      -0.88818358       0.22431141      -0.46545821E-02   0.15041206E-03    121263.00      -0.55882911E-02
  19175.431       0.19848175       0.22001265      -0.88825515       0.22321179      -0.33581938E-02   0.45641568E-03    121133.00      -0.18425430E-01
  19179.203       0.18948493       0.21875641      -0.88832712       0.22210832      -0.12206566E-02   0.49506903E-03    120934.00      -0.25049560E-01
  19183.016       0.18922268       0.21750573      -0.88839986       0.22099534       0.39706319E-03   0.23685764E-03    120744.00      -0.24203696E-01
  19186.889       0.19253681       0.21625431      -0.88847376       0.21986722       0.59986439E-03   0.13537520E-04    120729.00      -0.20296645E-01
  19190.764       0.19387038       0.21502095      -0.88854768       0.21874109       0.50195081E-03   0.22047311E-04    120515.00      -0.18099953E-01
  19194.699       0.19645695       0.21378673      -0.88862276       0.21759994       0.77204970E-03   0.10356572E-03    120462.00      -0.14830245E-01
  19198.675       0.19997802       0.21255783      -0.88869861       0.21644953       0.13212530E-02   0.13225768E-03    120264.00      -0.10765390E-01
  19202.672       0.20699129       0.21134005      -0.88877487       0.21529557       0.18265389E-02   0.43942386E-04    120199.00      -0.37215197E-02
  19206.710       0.21465447       0.21012710      -0.88885191       0.21413247       0.16743353E-02  -0.74131401E-04    120085.00       0.38743758E-02
  19210.789       0.22058177       0.20891879      -0.88892972       0.21296028       0.12248187E-02  -0.12850571E-03    119880.00       0.99807916E-02
  19214.909       0.22469659       0.20771487      -0.88900833       0.21177907       0.62073499E-03  -0.14297368E-03    119697.00       0.14532393E-01
  19219.050       0.22570982       0.20652068      -0.88908734       0.21059452       0.43677451E-04  -0.12561950E-03    119490.00       0.16421425E-01
  19223.252       0.22506101       0.20532458      -0.88916750       0.20939546      -0.42735499E-03  -0.19238373E-03    119152.00       0.16889776E-01
  19227.476       0.22210910       0.20413740      -0.88924808       0.20819319      -0.15772670E-02  -0.83064513E-04    118601.00       0.15379588E-01
  19231.741       0.21167276       0.20295310      -0.88932945       0.20698214      -0.11324282E-02   0.91796977E-04    115998.00       0.74619891E-02
  19236.047       0.21240344       0.20177126      -0.88941160       0.20576241      -0.79050542E-03  -0.11032264E-03    119073.00       0.90986620E-02
  19240.394       0.20483237       0.20059138      -0.88949453       0.20453406      -0.20870699E-02  -0.14899722E-03    119752.00       0.36292952E-02
  19244.763       0.19421226       0.19941820      -0.88957789       0.20330269      -0.20891846E-02   0.67579747E-04    119371.00      -0.44550657E-02
  19249.173       0.18649106       0.19824577      -0.88966203       0.20206283      -0.14937758E-02   0.12005023E-03    119159.00      -0.10059289E-01
  19253.625       0.18097445       0.19707349      -0.88974696       0.20081454      -0.10253019E-02   0.12771301E-03    118990.00      -0.13777022E-01
  19258.118       0.17731982       0.19590069      -0.88983268       0.19955790      -0.35139314E-03   0.18119955E-03    118821.00      -0.15900886E-01
  19262.653       0.17780209       0.19472665      -0.88991920       0.19829299       0.61056046E-03   0.15657591E-03    118551.00      -0.14483473E-01
  19267.209       0.18287065       0.19355566      -0.89000613       0.19702536       0.10720964E-02   0.51301081E-04    118409.00      -0.91438734E-02
  19271.807       0.18761701       0.19238179      -0.89009386       0.19574959       0.10802162E-02  -0.80278399E-05    118187.00      -0.40775362E-02
  19276.447       0.19284996       0.19120417      -0.89018238       0.19446575       0.99793323E-03  -0.42934289E-04    118054.00       0.14084089E-02
  19281.129       0.19691946       0.19002190      -0.89027170       0.19317392       0.67999523E-03  -0.71881559E-04    117873.00       0.59027003E-02
  19285.833       0.19923207       0.18883895      -0.89036144       0.19187961       0.32328742E-03  -0.76285909E-04    117543.00       0.88940833E-02
  19290.579       0.19997435       0.18764933      -0.89045198       0.19057744      -0.40864654E-04  -0.78460781E-04    117397.00       0.10547337E-01
  19295.366       0.19884250       0.18645254      -0.89054332       0.18926751      -0.42469725E-03  -0.64293988E-04    117191.00       0.10602913E-01
  19300.196       0.19588998       0.18524860      -0.89063546       0.18794988      -0.65918830E-03  -0.23732065E-04    116927.00       0.91065389E-02
  19305.067       0.19244760       0.18403757      -0.89072840       0.18662464      -0.65492605E-03   0.90715522E-06    116884.00       0.71970265E-02
  19309.961       0.18949430       0.18282441      -0.89082177       0.18529725      -0.65032947E-03  -0.16994672E-04    116775.00       0.57078692E-02
  19314.897       0.18605491       0.18160425      -0.89091594       0.18396239      -0.82198248E-03  -0.41161104E-04    116574.00       0.38087225E-02
  19319.876       0.18134492       0.18037715      -0.89101092       0.18262014      -0.10584130E-02  -0.40546041E-05    116465.00       0.82818503E-03
  19324.896       0.17547206       0.17914316      -0.89110670       0.18127060      -0.86252362E-03   0.61949615E-04    116019.00      -0.31416052E-02
  19329.939       0.17266488       0.17790719      -0.89120291       0.17991917      -0.43498058E-03   0.46409655E-04    116206.00      -0.44862015E-02
  19335.025       0.17106639       0.17666443      -0.89129993       0.17856058      -0.39246760E-03  -0.71597583E-05    116126.00      -0.47906122E-02
  19340.152       0.16865651       0.17541492      -0.89139776       0.17719494      -0.50810491E-03  -0.73928255E-05    115940.00      -0.57836256E-02
  19345.303       0.16584393       0.17416355      -0.89149603       0.17582759      -0.46845336E-03   0.61879301E-04    115468.00      -0.71196514E-02
  19350.516       0.16380174       0.17290071      -0.89159548       0.17444808       0.13317503E-03   0.86134302E-04    114528.00      -0.77865947E-02
  19355.751       0.16723543       0.17163609      -0.89169537       0.17306702       0.43152951E-03  -0.35604317E-05    115312.00      -0.37659390E-02
  19361.010       0.16833025       0.17036971      -0.89179569       0.17168446       0.95811507E-04  -0.45834016E-04    115262.00      -0.17453007E-02
  19366.331       0.16824907       0.16909204      -0.89189721       0.17029003      -0.53373751E-04  -0.21258380E-04    115171.00      -0.72138252E-03
  19371.675       0.16776102       0.16781269      -0.89199916       0.16889426      -0.13091145E-03  -0.15540670E-05    115006.00      -0.44221421E-04
  19377.062       0.16684428       0.16652694      -0.89210194       0.16749201      -0.70050226E-04   0.16774699E-04    114812.00       0.27156961E-03
  19382.492       0.16700331       0.16523483      -0.89220553       0.16608338       0.50535268E-04   0.87272018E-05    114575.00       0.15134065E-02
  19387.945       0.16739424       0.16394115      -0.89230956       0.16467363       0.24925031E-04  -0.96059655E-05    114407.00       0.29550399E-02
  19393.440       0.16727620       0.16264119      -0.89241441       0.16325765      -0.54638239E-04  -0.24110230E-04    114202.00       0.39664893E-02
  19398.979       0.16679130       0.16133502      -0.89252009       0.16183557      -0.24113064E-03  -0.36827254E-04    114149.00       0.46693087E-02
  19404.542       0.16459934       0.16002737      -0.89262621       0.16041257      -0.46346826E-03  -0.26960370E-04    113925.00       0.39125383E-02
  19410.147       0.16161541       0.15871359      -0.89273315       0.15898362      -0.54221704E-03  -0.17823678E-04    113622.00       0.24832824E-02
  19415.796       0.15849705       0.15739372      -0.89284092       0.15754882      -0.66406182E-03  -0.23646950E-04    113444.00       0.94419863E-03
  19421.488       0.15408425       0.15606781      -0.89294952       0.15610828      -0.81039852E-03   0.40682869E-04    112892.00      -0.16974641E-02
  19427.204       0.14925213       0.15474056      -0.89305856       0.15466713      -0.19995694E-03   0.77929424E-04    111664.00      -0.46968147E-02
  19432.963       0.15178978       0.15340736      -0.89316844       0.15322042       0.83826822E-04  -0.84740319E-05    113100.00      -0.13842679E-02
  19438.766       0.15022133       0.15206824      -0.89327915       0.15176823      -0.29793310E-03  -0.26582582E-04    112774.00      -0.15805234E-02
  19444.592       0.14832508       0.15072788      -0.89339030       0.15031568      -0.22530494E-03   0.86416517E-05    112507.00      -0.20562343E-02
  19450.462       0.14758607       0.14938168      -0.89350230       0.14885784      -0.19685671E-03   0.64038062E-06    112432.00      -0.15366266E-02
  19456.376       0.14600533       0.14802970      -0.89361512       0.14739481      -0.21775873E-03   0.16139089E-05    112244.00      -0.17323871E-02
  19462.314       0.14500530       0.14667656      -0.89372840       0.14593166      -0.17772947E-03   0.34419736E-05    112111.00      -0.14302062E-02
  19468.295       0.14388694       0.14531769      -0.89384252       0.14446351      -0.17673326E-03   0.40743553E-05    111891.00      -0.12243831E-02
  19474.321       0.14288325       0.14395304      -0.89395748       0.14299047      -0.12880824E-03   0.42383569E-05    111698.00      -0.91549575E-03
  19480.391       0.14232898       0.14258256      -0.89407328       0.14151265      -0.12546940E-03  -0.35195557E-05    111575.00      -0.21700087E-03
  19486.484       0.14135713       0.14121069      -0.89418953       0.14003505      -0.17161765E-03  -0.28867914E-05    111424.00       0.12531127E-03
  19492.602       0.14023331       0.13983735      -0.89430625       0.13855773      -0.16072088E-03   0.68462408E-05    111193.00       0.33884448E-03
  19498.784       0.13938029       0.13845338      -0.89442419       0.13707105      -0.87410122E-04   0.12931772E-04    110943.00       0.79321813E-03
  19504.990       0.13915043       0.13706774      -0.89454260       0.13558484      -0.51600398E-06   0.29310190E-05    110675.00       0.17822975E-02
  19511.221       0.13937387       0.13568031      -0.89466147       0.13409917      -0.50957537E-04  -0.16090420E-04    110525.00       0.31608292E-02
  19517.516       0.13851215       0.13428198      -0.89478157       0.13260450      -0.20206106E-03  -0.25339668E-04    110269.00       0.36200362E-02
  19523.836       0.13682490       0.13288164      -0.89490214       0.13111057      -0.37061415E-03  -0.22703548E-04    110051.00       0.33745065E-02
  19530.180       0.13381884       0.13147916      -0.89502317       0.12961744      -0.48956972E-03  -0.10867408E-04    109851.00       0.20022136E-02
  19536.568       0.13059135       0.13006994      -0.89514506       0.12812043      -0.50898560E-03   0.71926032E-05    109701.00       0.44620774E-03
  19543.002       0.12729251       0.12865385      -0.89526780       0.12661966      -0.39734458E-03   0.18374614E-04    109476.00      -0.11649850E-02
  19549.480       0.12546087       0.12723076      -0.89539140       0.12511526      -0.27173424E-03   0.94123476E-05    109287.00      -0.15146053E-02
  19555.983       0.12376501       0.12580499      -0.89551546       0.12361204      -0.27515866E-03   0.43036663E-05    109069.00      -0.17457465E-02
  19562.531       0.12186975       0.12437194      -0.89564039       0.12210538      -0.21556657E-03   0.83270249E-05    108867.00      -0.21412920E-02
  19569.104       0.12093658       0.12293590      -0.89576579       0.12060008      -0.16590051E-03   0.17606818E-05    108700.00      -0.17109554E-02
  19575.722       0.11968138       0.12149228      -0.89589205       0.11909157      -0.19234168E-03   0.64906438E-05    108487.00      -0.15497082E-02
  19582.386       0.11838203       0.12004090      -0.89601917       0.11757997      -0.79696391E-04   0.10223960E-04    108130.00      -0.14196065E-02
  19589.074       0.11861731       0.11858605      -0.89614678       0.11607001      -0.55836376E-04  -0.67911964E-05    108223.00       0.26754812E-04
  19595.807       0.11763260       0.11712309      -0.89627524       0.11455718      -0.17084701E-03  -0.90555489E-05    108013.00       0.43602175E-03
  19602.566       0.11631218       0.11565629      -0.89640419       0.11304616      -0.17801719E-03   0.41173442E-05    107766.00       0.56128399E-03
  19609.370       0.11521815       0.11418103      -0.89653400       0.11153251      -0.11500343E-03   0.15151086E-05    107518.00       0.88753637E-03
  19616.220       0.11474190       0.11269710      -0.89666469       0.11001634      -0.15732955E-03  -0.73371414E-05    107321.00       0.17498648E-02
  19623.096       0.11305878       0.11120874      -0.89679586       0.10850228      -0.21570687E-03  -0.67152377E-05    106986.00       0.15831997E-02
  19629.996       0.11177037       0.10971574      -0.89692751       0.10699042      -0.24983705E-03  -0.24698930E-05    106827.00       0.17582816E-02
  19636.963       0.10959417       0.10820902      -0.89706042       0.10547191      -0.24995801E-03  -0.11478615E-05    106674.00       0.11853699E-02
  19643.955       0.10828113       0.10669722      -0.89719383       0.10395582      -0.26586041E-03  -0.72371713E-05    106602.00       0.13554580E-02
  19650.973       0.10586939       0.10518011      -0.89732772       0.10244224      -0.35135310E-03  -0.63086018E-05    106363.00       0.58986204E-03
  19658.037       0.10333338       0.10365302      -0.89746249       0.10092683      -0.35469795E-03   0.27837582E-05    106118.00      -0.27353248E-03
  19665.148       0.10084179       0.10211570      -0.89759814       0.99409746E-01  -0.31189525E-03   0.52857378E-05    105813.00      -0.10901732E-02
  19672.284       0.98890040E-01   0.10057235      -0.89773428       0.97895478E-01  -0.27939590E-03   0.24374651E-05    105472.00      -0.14396642E-02
  19679.466       0.96841290E-01   0.99018271E-01  -0.89787131       0.96379773E-01  -0.27699470E-03   0.58312779E-05    105233.00      -0.18629881E-02
  19686.674       0.94903909E-01   0.97457911E-01  -0.89800883       0.94867082E-01  -0.19548008E-03   0.98308939E-05    105081.00      -0.21856295E-02
  19693.929       0.94014051E-01   0.95887020E-01  -0.89814724       0.93353202E-01  -0.13480999E-03   0.38404571E-05    104937.00      -0.16028238E-02
  19701.231       0.92941585E-01   0.94305807E-01  -0.89828654       0.91838274E-01  -0.13957754E-03   0.10077712E-05    104706.00      -0.11674558E-02
  19708.558       0.91972179E-01   0.92718967E-01  -0.89842634       0.90326692E-01  -0.12006735E-03   0.34166749E-06    104439.00      -0.63907649E-03
  19715.912       0.91178855E-01   0.91126736E-01  -0.89856663       0.88818541E-01  -0.13456146E-03  -0.35793961E-05    104182.00       0.44601556E-04
  19723.312       0.89986833E-01   0.89524883E-01  -0.89870782       0.87309700E-01  -0.17287844E-03  -0.17923988E-05    103943.00       0.39532135E-03
  19730.760       0.88611951E-01   0.87913654E-01  -0.89884991       0.85800319E-01  -0.16117505E-03   0.58392642E-06    103739.00       0.59757871E-03
  19738.234       0.87581882E-01   0.86297780E-01  -0.89899250       0.84294709E-01  -0.16416547E-03  -0.17744782E-05    103606.00       0.10988916E-02
  19745.734       0.86153714E-01   0.84677524E-01  -0.89913559       0.82792954E-01  -0.18774634E-03  -0.57966547E-05    103408.00       0.12632743E-02
  19753.302       0.84752825E-01   0.83044207E-01  -0.89927998       0.81286914E-01  -0.25151242E-03  -0.61924541E-05    103248.00       0.14621777E-02
  19760.876       0.82345240E-01   0.81411534E-01  -0.89942448       0.79789085E-01  -0.28151427E-03  -0.31094376E-05    102940.00       0.79903473E-03
  19768.498       0.80475072E-01   0.79770840E-01  -0.89956989       0.78291349E-01  -0.29876191E-03  -0.19879686E-05    102752.00       0.60265819E-03
  19776.167       0.77777054E-01   0.78122427E-01  -0.89971620       0.76793862E-01  -0.31191109E-03   0.52678748E-05    102246.00      -0.29555858E-03
  19783.862       0.75682667E-01   0.76471069E-01  -0.89986302       0.75300811E-01  -0.21782285E-03   0.54254210E-05    102127.00      -0.67468826E-03
  19791.606       0.74414065E-01   0.74812611E-01  -0.90001075       0.73808279E-01  -0.22814747E-03  -0.72212080E-08    102046.00      -0.34106211E-03
  19799.376       0.72143256E-01   0.73151836E-01  -0.90015900       0.72320409E-01  -0.21793488E-03   0.62259809E-06    101735.00      -0.86310966E-03
  19807.194       0.71016794E-01   0.71484620E-01  -0.90030815       0.70833336E-01  -0.21844212E-03   0.32389244E-05    101497.00      -0.40035031E-03
  19815.039       0.68721711E-01   0.69815750E-01  -0.90045783       0.69351155E-01  -0.16720235E-03   0.28774236E-05    101139.00      -0.93624179E-03
  19822.933       0.68385283E-01   0.68141136E-01  -0.90060842       0.67870054E-01  -0.17315585E-03  -0.34109964E-05    100954.00       0.20893315E-03
  19830.853       0.65983472E-01   0.66465562E-01  -0.90075953       0.66394080E-01  -0.22114292E-03  -0.61051560E-06    100699.00      -0.41255664E-03
  19838.822       0.64871505E-01   0.64784975E-01  -0.90091156       0.64919468E-01  -0.18285643E-03  -0.43047549E-06    100522.00       0.74049712E-04
  19846.818       0.63064214E-01   0.63104164E-01  -0.90106411       0.63450223E-01  -0.22801536E-03  -0.63632470E-05    100267.00      -0.34187615E-04
  19854.862       0.61214023E-01   0.61419114E-01  -0.90121758       0.61982631E-01  -0.28492616E-03   0.42654525E-05    99919.000      -0.17551031E-03
  19862.934       0.58472225E-01   0.59734609E-01  -0.90137158       0.60520649E-01  -0.15927153E-03   0.14473434E-04    98969.000      -0.10803067E-02
  19871.034       0.58638358E-01   0.58051033E-01  -0.90152611       0.59064375E-01  -0.50868590E-04  -0.19781676E-05    99680.000       0.50261386E-03
  19879.182       0.57645723E-01   0.56364436E-01  -0.90168156       0.57610170E-01  -0.19141236E-03  -0.10955962E-04    99490.000       0.10964827E-02
  19887.379       0.55509685E-01   0.54675270E-01  -0.90183795       0.56158211E-01  -0.22994598E-03  -0.13065077E-05    99246.000       0.71406442E-03
  19895.604       0.53869596E-01   0.52988299E-01  -0.90199486       0.54712359E-01  -0.21286757E-03  -0.13345349E-06    98943.000       0.75418457E-03
  19903.857       0.52002153E-01   0.51303945E-01  -0.90215231       0.53272716E-01  -0.23214497E-03  -0.63238201E-06    98711.000       0.59750307E-03
  19912.158       0.50026562E-01   0.49618366E-01  -0.90231070       0.51835749E-01  -0.22333631E-03  -0.10863633E-06    98492.000       0.34932048E-03
  19920.488       0.48287724E-01   0.47936306E-01  -0.90246962       0.50405248E-01  -0.23395176E-03  -0.12187647E-05    98196.000       0.30073209E-03
  19928.867       0.46117501E-01   0.46253982E-01  -0.90262947       0.48977734E-01  -0.24370045E-03   0.18952561E-05    97936.000      -0.11679567E-03
  19937.274       0.44196900E-01   0.44575685E-01  -0.90278987       0.47556944E-01  -0.20213746E-03   0.33731945E-05    97723.000      -0.32415174E-03
  19945.710       0.42712945E-01   0.42900501E-01  -0.90295081       0.46142986E-01  -0.18688647E-03   0.98417600E-06    97552.000      -0.16050442E-03
  19954.195       0.41034676E-01   0.41223197E-01  -0.90311269       0.44732462E-01  -0.18548465E-03   0.65180728E-06    97378.000      -0.16132972E-03
  19962.730       0.39556053E-01   0.39542725E-01  -0.90327551       0.43325559E-01  -0.17579292E-03  -0.61681412E-06    97231.000       0.11405640E-04
  19971.293       0.38028994E-01   0.37862157E-01  -0.90343889       0.41925916E-01  -0.19603085E-03  -0.46866206E-06    97012.000       0.14277363E-03
  19979.885       0.36193144E-01   0.36180348E-01  -0.90360280       0.40533642E-01  -0.18383281E-03   0.13091118E-05    96776.000       0.10950307E-04
  19988.505       0.34864814E-01   0.34496132E-01  -0.90376727       0.39148848E-01  -0.17349807E-03  -0.13439691E-05    96486.000       0.31550532E-03
  19997.176       0.33193201E-01   0.32804172E-01  -0.90393269       0.37768275E-01  -0.20707129E-03  -0.28871803E-05    96207.000       0.33291848E-03
  20005.896       0.31263629E-01   0.31103241E-01  -0.90409906       0.36392115E-01  -0.22370913E-03  -0.16952050E-06    95939.000       0.13725466E-03
  20014.646       0.29284980E-01   0.29396230E-01  -0.90426599       0.35023879E-01  -0.21003283E-03   0.64230748E-06    95633.000      -0.95203484E-04
  20023.424       0.27582165E-01   0.27681857E-01  -0.90443347       0.33663682E-01  -0.21245074E-03  -0.13716612E-05    95386.000      -0.85313485E-04
  20032.232       0.25548796E-01   0.25958813E-01  -0.90460150       0.32311637E-01  -0.23415503E-03   0.42248706E-06    95143.000      -0.35087910E-03
  20041.090       0.23445657E-01   0.24221574E-01  -0.90477050       0.30964630E-01  -0.20498722E-03   0.23382417E-05    94852.000      -0.66400406E-03
  20049.999       0.21906833E-01   0.22468721E-01  -0.90494046       0.29622860E-01  -0.19261200E-03  -0.37792362E-06    94653.000      -0.48084473E-03
  20058.937       0.20008157E-01   0.20703025E-01  -0.90511098       0.28289704E-01  -0.21173193E-03  -0.77421805E-06    94400.000      -0.59464503E-03
  20067.904       0.18115661E-01   0.18923059E-01  -0.90528207       0.26965282E-01  -0.20647479E-03   0.16182124E-05    94137.000      -0.69094415E-03
  20076.901       0.16298957E-01   0.17127362E-01  -0.90545372       0.25649714E-01  -0.18266169E-03  -0.13091490E-05    93834.000      -0.70892108E-03
  20085.949       0.14819547E-01   0.15310123E-01  -0.90562634       0.24340029E-01  -0.23009826E-03   0.11370725E-05    93676.000      -0.41981871E-03
  20095.027       0.12128293E-01   0.13474081E-01  -0.90579952       0.23039497E-01  -0.16205159E-03   0.55983373E-05    93239.000      -0.11516805E-02
  20104.155       0.11869160E-01   0.11613280E-01  -0.90597369       0.21745207E-01  -0.12817230E-03  -0.28364554E-05    93313.000       0.21897311E-03
  20113.314       0.97843378E-02   0.97304562E-02  -0.90614842       0.20460375E-01  -0.21392335E-03  -0.36175005E-05    92948.000       0.46110063E-04
  20122.503       0.79442481E-02   0.78239829E-02  -0.90632372       0.19185122E-01  -0.19454360E-03   0.20888903E-06    92635.000       0.10291898E-03
  20131.721       0.62033388E-02   0.58922110E-02  -0.90649960       0.17919574E-01  -0.21007829E-03  -0.41776108E-06    92333.000       0.26625287E-03
  20140.992       0.40601568E-02   0.39288659E-02  -0.90667646       0.16660947E-01  -0.20226749E-03   0.82054600E-06    92055.000       0.11235434E-03
  20150.314       0.24427493E-02   0.19320600E-02  -0.90685431       0.15409455E-01  -0.19482257E-03   0.52097922E-07    91812.000       0.43703088E-03
  20159.644       0.42621321E-03  -0.90715858E-04  -0.90703232       0.14171022E-01  -0.20129573E-03  -0.27065434E-06    91523.000       0.44237068E-03
  20169.027      -0.13241339E-02  -0.21506217E-02  -0.90721132       0.12940044E-01  -0.19988737E-03   0.56539522E-06    91320.000       0.70728070E-03
  20178.440      -0.33307799E-02  -0.42448351E-02  -0.90739091       0.11719531E-01  -0.19066881E-03   0.13581496E-06    91118.000       0.78221803E-03
  20187.905      -0.49236065E-02  -0.63801371E-02  -0.90757149       0.10506857E-01  -0.19732344E-03  -0.84697115E-06    90969.000       0.12464504E-02
  20197.401      -0.70722119E-02  -0.85536538E-02  -0.90775265       0.93049744E-02  -0.20672816E-03  -0.39816148E-06    90739.000       0.12677686E-02
  20206.927      -0.88560329E-02  -0.10767324E-01  -0.90793440       0.81140159E-02  -0.20489735E-03   0.34104112E-06    90609.000       0.16356195E-02
  20216.484      -0.10982403E-01  -0.13023119E-01  -0.90811673       0.69341162E-02  -0.20021985E-03   0.13995106E-05    90284.000       0.17463764E-02
  20226.094      -0.12693647E-01  -0.12693647E-01  -0.90830007       0.57627770E-02  -0.17807293E-03   0.23046200E-05    90101.000        0.0000000
