# XDI/1.0 Hephaestus/0.9.26
# Element.edge:                  L3
# Element.symbol:                Pt
# Column.1:                      energy eV
# Column.2:                      xmu
# Column.3:                      bkg
# Column.4:                      pre_edge
# Column.5:                      post_edge
# Column.6:                      der
# Column.7:                      sec
# Column.8:                      i0
# Column.9:                      chi(e)
# Athena.e0:                     11561.50137
# Athena.eshift:                 0
# Athena.rbkg:                   1
# Athena.importance:             1
# Athena.standard:               None
# Athena.bkg_kweight:            2
# Athena.edge_step:              0.9209578
# Athena.fixed_step:             no
# Athena.pre_edge_range:         -150.000 -30.000
# Athena.pre_edge_line:          2.628121 - 0.000360364 * E
# Athena.normalization_range:    100.000 1000.000
# Athena.post_edge_polynomial:   5.177240 - 0.000460397 * E - 3.52843303e-009 * E^2 + 0 * E^3
# Athena.spline_range_energy:    0.000 1234.435
# Athena.clamps:                 0 24
# Athena.spline_range_k:         0.000 18.000
# Athena.kweight:                1
# Athena.window:                 hanning
# Athena.phase_correction:       no
# Athena.k_range:                3.000 17.000
# Athena.dk:                     1
# Athena.r_range:                1 3
# Athena.dr:                     0.0
# Athena.window:                 hanning
# Athena.plot_multiplier:        1
# Athena.y_offset:               0
# ///
#------------------------
#   e         xmu        bkg        pre_edge        post_edge        der        sec        i0        chie
  11364.000       -1.4602136       -1.4602136       -1.4670598      -0.51036933      -0.38031858E-03  -0.38782625E-05    77203.000        0.0000000
  11374.003       -1.4640180       -1.4640180       -1.4706646      -0.51577735      -0.41911385E-03  -0.39102625E-05    77010.000        0.0000000
  11383.997       -1.4685945       -1.4685945       -1.4742659      -0.52118087      -0.45851167E-03  -0.22491122E-05    76820.000        0.0000000
  11394.001       -1.4731874       -1.4731874       -1.4778712      -0.52659096      -0.46409184E-03   0.14521280E-06    76388.000        0.0000000
  11404.003       -1.4778792       -1.4778792       -1.4814754      -0.53200021      -0.45560653E-03   0.11662728E-05    76108.000        0.0000000
  11414.001       -1.4822996       -1.4822996       -1.4850786      -0.53740857      -0.44076607E-03   0.11258857E-05    75897.000        0.0000000
  11423.997       -1.4866920       -1.4866920       -1.4886807      -0.54281601      -0.43309521E-03   0.17246655E-06    75537.000        0.0000000
  11433.997       -1.4909594       -1.4909594       -1.4922841      -0.54822623      -0.43731757E-03  -0.19408751E-05    75121.000        0.0000000
  11444.000       -1.4954396       -1.4954396       -1.4958889      -0.55363922      -0.47191814E-03  -0.11478749E-05    73690.000        0.0000000
  11454.000       -1.5003994       -1.5003994       -1.4994927      -0.55905122      -0.46027907E-03   0.15970789E-05    74665.000        0.0000000
  11463.997       -1.5046439       -1.5046439       -1.5030952      -0.56446218      -0.43998117E-03   0.98532828E-06    73535.000        0.0000000
  11473.998       -1.5091980       -1.5091980       -1.5066991      -0.56987584      -0.44057488E-03   0.23833526E-05    73674.000        0.0000000
  11484.002       -1.5134575       -1.5134575       -1.5103043      -0.57529219      -0.39230234E-03   0.46742129E-05    75585.000        0.0000000
  11494.003       -1.5170461       -1.5170461       -1.5139083      -0.58070744      -0.34706608E-03   0.49653089E-05    75001.000        0.0000000
  11504.000       -1.5203983       -1.5203983       -1.5175110      -0.58612153      -0.29300371E-03   0.93912018E-05    74696.000        0.0000000
  11514.002       -1.5229058       -1.5229058       -1.5211150      -0.59153825      -0.15925528E-03   0.21730459E-04    74307.000        0.0000000
  11523.999       -1.5235832       -1.5235832       -1.5247178      -0.59695377       0.14157526E-03   0.57506984E-04    74088.000        0.0000000
  11534.000       -1.5200745       -1.5200745       -1.5283218      -0.60237185       0.99079985E-03   0.79128246E-04    73747.000        0.0000000
  11543.997       -1.5037689       -1.5037689       -1.5319245      -0.60778868       0.17240096E-02   0.24781252E-03    73474.000        0.0000000
  11544.497       -1.5019769       -1.5019769       -1.5321047      -0.60805960       0.35921746E-02   0.18931820E-02    73447.000        0.0000000
  11544.997       -1.5001767       -1.5001767       -1.5322848      -0.60833054       0.36171727E-02   0.10704527E-03    73435.000        0.0000000
  11545.498       -1.4983595       -1.4983595       -1.5324651      -0.60860151       0.36992284E-02   0.64901795E-03    73449.000        0.0000000
  11545.998       -1.4964769       -1.4964769       -1.5326453      -0.60887250       0.42663009E-02   0.83576261E-03    73387.000        0.0000000
  11546.498       -1.4940921       -1.4940921       -1.5328255      -0.60914352       0.45352000E-02   0.47772827E-03    73406.000        0.0000000
  11546.998       -1.4919401       -1.4919401       -1.5330058      -0.60941457       0.47441916E-02   0.64912976E-03    73350.000        0.0000000
  11547.498       -1.4893459       -1.4893459       -1.5331860      -0.60968564       0.51846088E-02   0.11332005E-02    73352.000        0.0000000
  11547.998       -1.4867528       -1.4867528       -1.5333663      -0.60995673       0.58779814E-02   0.19565934E-02    73322.000        0.0000000
  11548.499       -1.4834644       -1.4834644       -1.5335466      -0.61022785       0.71423762E-02   0.18861736E-02    73326.000        0.0000000
  11548.999       -1.4796055       -1.4796055       -1.5337269      -0.61049900       0.77654564E-02   0.55887066E-03    73313.000        0.0000000
  11549.500       -1.4756928       -1.4756928       -1.5339073      -0.61077017       0.77016828E-02   0.76567960E-03    73284.000        0.0000000
  11550.000       -1.4718971       -1.4718971       -1.5340876      -0.61104137       0.85318021E-02   0.26392348E-02    73232.000        0.0000000
  11550.501       -1.4671529       -1.4671529       -1.5342680      -0.61131260       0.10343451E-01   0.23795633E-02    73236.000        0.0000000
  11551.001       -1.4615429       -1.4615429       -1.5344483      -0.61158384       0.10913840E-01   0.10649724E-02    73245.000        0.0000000
  11551.502       -1.4562268       -1.4562268       -1.5346287      -0.61185511       0.11409616E-01   0.25263150E-02    73227.000        0.0000000
  11552.002       -1.4501195       -1.4501195       -1.5348091      -0.61212641       0.13443212E-01   0.33833829E-02    73180.000        0.0000000
  11552.503       -1.4427660       -1.4427660       -1.5349896      -0.61239774       0.14797432E-01   0.28319601E-02    73210.000        0.0000000
  11552.997       -1.4354058       -1.4354058       -1.5351675      -0.61266527       0.16259143E-01   0.44631896E-02    73206.000        0.0000000
  11553.497       -1.4265976       -1.4265976       -1.5353479      -0.61293664       0.19235717E-01   0.61156923E-02    73110.000        0.0000000
  11553.998       -1.4161401       -1.4161401       -1.5355284      -0.61320804       0.22384376E-01   0.53566014E-02    73146.000        0.0000000
  11554.499       -1.4041762       -1.4041762       -1.5357089      -0.61347947       0.24601156E-01   0.49999030E-02    73132.000        0.0000000
  11555.000       -1.3914961       -1.3914961       -1.5358894      -0.61375092       0.27392979E-01   0.82938518E-02    73102.000        0.0000000
  11555.501       -1.3767331       -1.3767331       -1.5360699      -0.61402240       0.32910186E-01   0.12489973E-01    73090.000        0.0000000
  11556.002       -1.3585228       -1.3585228       -1.5362504      -0.61429390       0.39906932E-01   0.12356063E-01    73048.000        0.0000000
  11556.503       -1.3367464       -1.3367464       -1.5364310      -0.61456543       0.45290962E-01   0.12019334E-01    73034.000        0.0000000
  11556.997       -1.3134569       -1.3134569       -1.5366090      -0.61483316       0.51866531E-01   0.18478851E-01    73002.000        0.0000000
  11557.498       -1.2851330       -1.2851330       -1.5367896      -0.61510474       0.63679636E-01   0.24496549E-01    73010.000        0.0000000
  11557.999       -1.2496333       -1.2496333       -1.5369702      -0.61537634       0.76418442E-01   0.27284421E-01    72966.000        0.0000000
  11558.500       -1.2085349       -1.2085349       -1.5371508      -0.61564797       0.91028175E-01   0.34243709E-01    72957.000        0.0000000
  11559.002       -1.1583830       -1.1583830       -1.5373314      -0.61591962       0.11074571       0.39222206E-01    72941.000        0.0000000
  11559.503       -1.0975102       -1.0975102       -1.5375121      -0.61619130       0.13034922       0.43346702E-01    72929.000        0.0000000
  11559.997       -1.0286139       -1.0286139       -1.5376902      -0.61645918       0.15389951       0.51796899E-01    72919.000        0.0000000
  11560.498      -0.94428164      -0.94428164       -1.5378709      -0.61673091       0.18192029       0.51720601E-01    72859.000        0.0000000
  11561.000      -0.84618604      -0.84618604       -1.5380516      -0.61700267       0.20576442       0.28713079E-01    72894.000        0.0000000
  11561.501      -0.73792462      -0.31650569       -1.5382323      -0.61727445       0.21071606      -0.14770311E-02    72879.000      -0.45758767
  11562.003      -0.63484626      -0.40037796       -1.5384130      -0.61754626       0.20428301      -0.22306746E-01    72792.000      -0.25459180
  11562.497      -0.53446283      -0.41958951       -1.5385912      -0.61781426       0.18849899      -0.63303484E-01    72788.000      -0.12473244
  11562.999      -0.44708808      -0.43801857       -1.5387719      -0.61808612       0.14122831      -0.10444936        72782.000      -0.98479108E-02
  11563.501      -0.39277835      -0.45541247       -1.5389527      -0.61835801       0.83712250E-01  -0.10603239        72766.000       0.68009764E-01
  11564.002      -0.36309790      -0.47180021       -1.5391335      -0.61862992       0.34843892E-01  -0.92284750E-01    72754.000       0.11803180
  11564.497      -0.35806234      -0.48700065       -1.5393118      -0.61889802      -0.82338152E-02  -0.72989518E-01    72748.000       0.14000458
  11564.999      -0.37130224      -0.50147763       -1.5394926      -0.61916998      -0.37884323E-01  -0.47613818E-01    72719.000       0.14134783
  11565.500      -0.39608228      -0.51503616       -1.5396734      -0.61944197      -0.56018091E-01  -0.22943068E-01    72742.000       0.12916322
  11566.002      -0.42752536      -0.52770566       -1.5398543      -0.61971398      -0.60911363E-01  -0.32871036E-02    72688.000       0.10877838
  11566.497      -0.45679142      -0.53935526       -1.5400326      -0.61998219      -0.59294281E-01   0.30039799E-02    72684.000       0.89649974E-01
  11566.999      -0.48662812      -0.55034671       -1.5402135      -0.62025425      -0.57917086E-01   0.65734843E-02    72673.000       0.69187309E-01
  11567.501      -0.51493554      -0.56053703       -1.5403944      -0.62052634      -0.52695029E-01   0.14036239E-01    72650.000       0.49515280E-01
  11568.003      -0.53953446      -0.56995586       -1.5405753      -0.62079845      -0.43824562E-01   0.15247367E-01    72632.000       0.33032356E-01
  11568.498      -0.55862994      -0.57851535       -1.5407537      -0.62106676      -0.37492946E-01   0.95575923E-02    72635.000       0.21592087E-01
  11569.000      -0.57691905      -0.58648914       -1.5409346      -0.62133892      -0.34294591E-01   0.88772507E-02    72657.000       0.10391459E-01
  11569.502      -0.59307097      -0.59377950       -1.5411156      -0.62161111      -0.28577790E-01   0.90287268E-02    72581.000       0.76933666E-03
  11569.998      -0.60541939      -0.60032677       -1.5412940      -0.62187949      -0.25290332E-01   0.40146726E-02    72610.000      -0.55297040E-02
  11570.500      -0.61829479      -0.60634713       -1.5414750      -0.62215173      -0.24573676E-01   0.40111714E-02    72567.000      -0.12973081E-01
  11571.002      -0.63010439      -0.61177223       -1.5416560      -0.62242399      -0.21260990E-01   0.59812735E-02    72508.000      -0.19905534E-01
  11571.497      -0.63950369      -0.61656692       -1.5418345      -0.62269245      -0.18607056E-01   0.52711064E-02    72554.000      -0.24905345E-01
  11572.000      -0.64866753      -0.62089742       -1.5420155      -0.62296477      -0.16002323E-01   0.68886790E-02    72532.000      -0.30153506E-01
  11572.502      -0.65558283      -0.62472089       -1.5421965      -0.62323711      -0.11685312E-01   0.81870415E-02    72557.000      -0.33510696E-01
  11572.997      -0.66032725      -0.62802304       -1.5423751      -0.62350564      -0.78332112E-02   0.78857451E-02    72521.000      -0.35076758E-01
  11573.500      -0.66339959      -0.63092747       -1.5425562      -0.62377804      -0.38161267E-02   0.82543758E-02    72468.000      -0.35259072E-01
  11574.003      -0.66416269      -0.63341335       -1.5427373      -0.62405046       0.46293178E-03   0.79495237E-02    72475.000      -0.33388430E-01
  11574.498      -0.66293755      -0.63548342       -1.5429158      -0.62431907       0.41180545E-02   0.66015905E-02    72485.000      -0.29810412E-01
  11575.001      -0.66005221      -0.63722611       -1.5430970      -0.62459154       0.70523754E-02   0.55427321E-02    72435.000      -0.24785178E-01
  11575.503      -0.65584766      -0.63863887       -1.5432781      -0.62486403       0.96902739E-02   0.44954119E-02    72448.000      -0.18685749E-01
  11575.999      -0.65037812      -0.63973772       -1.5434567      -0.62513271       0.11540280E-01   0.24913217E-02    72455.000      -0.11553622E-01
  11576.502      -0.64432561      -0.64058340       -1.5436379      -0.62540526       0.12177659E-01   0.71876142E-03    72436.000      -0.40633836E-02
  11576.998      -0.63821873      -0.64118095       -1.5438165      -0.62567399       0.12257963E-01  -0.79893768E-03    72408.000       0.32164579E-02
  11577.500      -0.63208493      -0.64157684       -1.5439978      -0.62594659       0.11379848E-01  -0.38456065E-02    72423.000       0.10306561E-01
  11578.003      -0.62677333      -0.64179067       -1.5441790      -0.62621921       0.83902061E-02  -0.68597943E-02    72424.000       0.16306218E-01
  11578.499      -0.62370513      -0.64185229       -1.5443577      -0.62648802       0.45285600E-02  -0.79612698E-02    72370.000       0.19704658E-01
  11579.002      -0.62224998      -0.64179290       -1.5445389      -0.62676069       0.43809181E-03  -0.87840499E-02    72404.000       0.21220214E-01
  11579.498      -0.62326750      -0.64164310       -1.5447177      -0.62702955      -0.42461788E-02  -0.91402239E-02    72362.000       0.19952705E-01
  11580.001      -0.62649204      -0.64142809       -1.5448989      -0.62730228      -0.86932661E-02  -0.88597656E-02    72330.000       0.16217952E-01
  11580.497      -0.63195303      -0.64118287       -1.5450777      -0.62757118      -0.13098059E-01  -0.64609257E-02    72339.000       0.10022005E-01
  11581.000      -0.63957962      -0.64092955       -1.5452590      -0.62784396      -0.15149023E-01  -0.32955643E-02    72309.000       0.14657876E-02
  11581.497      -0.64709130      -0.64069115       -1.5454378      -0.62811292      -0.16391284E-01  -0.13021684E-02    72315.000      -0.69494446E-02
  11582.000      -0.65596058      -0.64046166       -1.5456192      -0.62838575      -0.16450371E-01   0.29021151E-02    72253.000      -0.16829127E-01
  11582.503      -0.66364942      -0.64024444       -1.5458005      -0.62865860      -0.13470160E-01   0.60854961E-02    72247.000      -0.25413733E-01
  11582.999      -0.66942467      -0.64004218       -1.5459794      -0.62892763      -0.10367613E-01   0.93682560E-02    72238.000      -0.31904276E-01
  11583.503      -0.67401319      -0.63984898       -1.5461608      -0.62920054      -0.41053699E-02   0.42900207E-02    72182.000      -0.37096394E-01
  11585.240      -0.67862378      -0.63927297       -1.5467869      -0.63014244      -0.75474947E-03   0.27369915E-02    144225.00      -0.42728133E-01
  11586.517      -0.67628812      -0.63893721       -1.5472470      -0.63083465       0.41443056E-02   0.40814085E-02    144218.00      -0.40556582E-01
  11587.836      -0.66786355      -0.63866568       -1.5477225      -0.63155011       0.98421789E-02   0.46629345E-02    144052.00      -0.31703803E-01
  11589.185      -0.65002977      -0.63846517       -1.5482084      -0.63228113       0.16584735E-01   0.35568389E-02    143930.00      -0.12557143E-01
  11590.576      -0.62242900      -0.63833725       -1.5487097      -0.63303543       0.19586281E-01  -0.11112842E-02    143763.00       0.17273585E-01
  11592.003      -0.59482995      -0.63828659       -1.5492240      -0.63380918       0.13452814E-01  -0.66185573E-02    143712.00       0.47186349E-01
  11593.466      -0.58355037      -0.63831637       -1.5497512      -0.63460239       0.45865083E-03  -0.79361760E-02    143563.00       0.59466352E-01
  11594.972      -0.59346828      -0.63843021       -1.5502939      -0.63541893      -0.10108581E-01  -0.45153448E-02    143467.00       0.48820832E-01
  11596.514      -0.61435910      -0.63863070       -1.5508495      -0.63625496      -0.13303127E-01  -0.12130518E-03    143412.00       0.26354733E-01
  11598.084      -0.63487506      -0.63891855       -1.5514155      -0.63710665      -0.10486151E-01   0.23031019E-02    143269.00       0.43905276E-02
  11599.705      -0.64782681      -0.63930005       -1.5519996      -0.63798558      -0.59525239E-02   0.19078577E-02    143211.00      -0.92585722E-02
  11601.355      -0.65434398      -0.63977213       -1.5525942      -0.63888021      -0.42461205E-02   0.17678951E-03    143103.00      -0.15822492E-01
  11603.041      -0.66199042      -0.64033727       -1.5532017      -0.63979440      -0.53628142E-02  -0.27905898E-03    143009.00      -0.23511560E-01
  11604.770      -0.67265746      -0.64099881       -1.5538248      -0.64073203      -0.51990790E-02   0.11293086E-02    142940.00      -0.34375779E-01
  11606.535      -0.68015699      -0.64175452       -1.5544609      -0.64168926      -0.14167954E-02   0.25494390E-02    142916.00      -0.41698405E-01
  11608.329      -0.67770030      -0.64260028       -1.5551074      -0.64266226       0.38752158E-02   0.24579204E-02    142874.00      -0.38112517E-01
  11610.174      -0.66605589      -0.64354543       -1.5557722      -0.64366263       0.75270608E-02   0.13032234E-02    142755.00      -0.24442445E-01
  11612.048      -0.64971243      -0.64457766       -1.5564474      -0.64467880       0.87209912E-02   0.19624392E-03    142748.00      -0.55754622E-02
  11613.958      -0.63305889      -0.64569803       -1.5571356      -0.64571465       0.82695751E-02  -0.68282805E-03    142656.00       0.13723913E-01
  11615.911      -0.61776458      -0.64690794       -1.5578396      -0.64677408       0.60830216E-02  -0.15971692E-02    142636.00       0.31644624E-01
  11617.901      -0.60907329      -0.64819940       -1.5585566      -0.64785323       0.19718730E-02  -0.20170825E-02    142584.00       0.42484144E-01
  11619.920      -0.60986015      -0.64956280       -1.5592841      -0.64894827      -0.20026352E-02  -0.14565693E-02    142505.00       0.43110170E-01
  11621.982      -0.61724675      -0.65100228       -1.5600274      -0.65006695      -0.39728962E-02  -0.50721390E-03    142390.00       0.36652640E-01
  11624.081      -0.62639264      -0.65250677       -1.5607837      -0.65120542      -0.41133146E-02   0.57572612E-04    142214.00       0.28355399E-01
  11626.223      -0.63469288      -0.65407426       -1.5615558      -0.65236758      -0.37287088E-02   0.24472858E-03    142034.00       0.21044809E-01
  11628.395      -0.64247974      -0.65568609       -1.5623385      -0.65354572      -0.30574601E-02   0.27590947E-03    141908.00       0.14339797E-01
  11630.604      -0.64808556      -0.65733825       -1.5631343      -0.65474372      -0.25201343E-02  -0.20345973E-04    141768.00       0.10046810E-01
  11632.856      -0.65372113      -0.65902588       -1.5639459      -0.65596549      -0.31482159E-02  -0.40252379E-03    141636.00       0.57600348E-02
  11635.145      -0.66238170      -0.66073227       -1.5647707      -0.65720718      -0.43480070E-02  -0.37371933E-03    141532.00      -0.17909988E-02
  11637.463      -0.67375336      -0.66243968       -1.5656062      -0.65846493      -0.48700231E-02   0.17621329E-04    141433.00      -0.12284681E-01
  11639.825      -0.68517658      -0.66414531       -1.5664575      -0.65974653      -0.42655277E-02   0.39305079E-03    141392.00      -0.22836297E-01
  11642.224      -0.69406286      -0.66583640       -1.5673220      -0.66104811      -0.29985865E-02   0.52267201E-03    141361.00      -0.30649024E-01
  11644.660      -0.69967450      -0.66751210       -1.5681998      -0.66236973      -0.17384503E-02   0.54833953E-03    141250.00      -0.34922772E-01
  11647.133      -0.70259625      -0.66917194       -1.5690909      -0.66371139      -0.30699611E-03   0.67303586E-03    141144.00      -0.36292986E-01
  11649.643      -0.70120408      -0.67081553       -1.5699953      -0.66507313       0.16148836E-02   0.72491974E-03    141048.00      -0.32996686E-01
  11652.189      -0.69443093      -0.67244258       -1.5709130      -0.66645497       0.33584083E-02   0.44972895E-03    140903.00      -0.23875518E-01
  11654.773      -0.68397454      -0.67405293       -1.5718441      -0.66785694       0.39221145E-02  -0.49458873E-04    140734.00      -0.10773147E-01
  11657.401      -0.67399071      -0.67565080       -1.5727911      -0.66928297       0.31006519E-02  -0.45531583E-03    140586.00       0.18025708E-02
  11660.059      -0.66758539      -0.67722752       -1.5737488      -0.67072529       0.15154471E-02  -0.57890010E-03    140424.00       0.10469672E-01
  11662.754      -0.66587883      -0.67878766       -1.5747200      -0.67218783       0.19154228E-05  -0.44832682E-03    140242.00       0.14016750E-01
  11665.486      -0.66757500      -0.68033152       -1.5757046      -0.67367061      -0.91770329E-03  -0.22900471E-03    140130.00       0.13851362E-01
  11668.263      -0.67093431      -0.68186342       -1.5767052      -0.67517758      -0.12596372E-02  -0.65270812E-04    140022.00       0.11867109E-01
  11671.069      -0.67460809      -0.68337600       -1.5777167      -0.67670095      -0.12821383E-02   0.44540188E-04    139915.00       0.95204196E-02
  11673.914      -0.67817960      -0.68487396       -1.5787416      -0.67824467      -0.10079433E-02   0.18036843E-03    139875.00       0.72689097E-02
  11676.802      -0.68038657      -0.68636181       -1.5797826      -0.67981267      -0.24809694E-03   0.27599337E-03    139595.00       0.64880692E-02
  11679.721      -0.67962051      -0.68783313       -1.5808345      -0.68139716       0.59498208E-03   0.18974065E-03    139443.00       0.89174782E-02
  11682.678      -0.67689066      -0.68929283       -1.5819000      -0.68300209       0.86675459E-03  -0.70726962E-04    139348.00       0.13466596E-01
  11685.672      -0.67446263      -0.69074221       -1.5829790      -0.68462748       0.17410078E-03  -0.32396364E-03    139268.00       0.17676790E-01
  11688.704      -0.67584152      -0.69218278       -1.5840716      -0.68627338      -0.10854600E-02  -0.42695829E-03    139187.00       0.17743762E-01
  11691.781      -0.68109329      -0.69361954       -1.5851803      -0.68794374      -0.24340209E-02  -0.37241221E-03    139089.00       0.13601331E-01
  11694.888      -0.69089370      -0.69504760       -1.5863001      -0.68963074      -0.33884869E-02  -0.19623049E-03    139053.00       0.45104081E-02
  11698.033      -0.70227963      -0.69647240       -1.5874335      -0.69133836      -0.36609423E-02   0.41368770E-04    139030.00      -0.63056380E-02
  11701.216      -0.71406077      -0.69789620       -1.5885805      -0.69306661      -0.31266983E-02   0.28345004E-03    138877.00      -0.17551914E-01
  11704.430      -0.72228037      -0.69931822       -1.5897386      -0.69481161      -0.18477804E-02   0.42240690E-03    138676.00      -0.24932902E-01
  11707.689      -0.72602090      -0.70074753       -1.5909131      -0.69658124      -0.39258514E-03   0.40350591E-03    138420.00      -0.27442480E-01
  11710.986      -0.72485416      -0.70218378       -1.5921012      -0.69837163       0.79760838E-03   0.27593945E-03    138212.00      -0.24616091E-01
  11714.314      -0.72073676      -0.70362693       -1.5933005      -0.70017887       0.14355055E-02   0.12192284E-03    137951.00      -0.18578302E-01
  11717.687      -0.71523441      -0.70508659       -1.5945161      -0.70201086       0.16146499E-02  -0.11786794E-04    137465.00      -0.11018771E-01
  11721.092      -0.70979309      -0.70656002       -1.5957429      -0.70385977       0.13556176E-02  -0.98821793E-04    137770.00      -0.35105507E-02
  11724.534      -0.70595241      -0.70805416       -1.5969835      -0.70572957       0.93801114E-03  -0.10218791E-03    137652.00       0.22821313E-02
  11728.015      -0.70329852      -0.70957306       -1.5982380      -0.70762030       0.64809309E-03  -0.98089995E-04    137459.00       0.68130510E-02
  11731.535      -0.70141537      -0.71112102       -1.5995063      -0.70953201       0.25132232E-03  -0.14209051E-03    137429.00       0.10538640E-01
  11735.093      -0.70151977      -0.71270262       -1.6007885      -0.71146474      -0.35756383E-03  -0.13399893E-03    137314.00       0.12142626E-01
  11738.682      -0.70397103      -0.71431855       -1.6020820      -0.71341456      -0.70642297E-03  -0.10109553E-04    137191.00       0.11235603E-01
  11742.310      -0.70661828      -0.71597290       -1.6033894      -0.71538546      -0.43052811E-03   0.14197547E-03    136998.00       0.10157487E-01
  11745.984      -0.70711475      -0.71766915       -1.6047134      -0.71738145       0.33028333E-03   0.16371310E-03    136859.00       0.11460249E-01
  11749.690      -0.70418094      -0.71940067       -1.6060487      -0.71939466       0.77759760E-03  -0.36536893E-04    136730.00       0.16525974E-01
  11753.427      -0.70132740      -0.72116734       -1.6073954      -0.72142511       0.58353844E-04  -0.30946261E-03    136539.00       0.21542724E-01
  11757.210      -0.70374210      -0.72297609       -1.6087588      -0.72348078      -0.15496819E-02  -0.40047341E-03    136416.00       0.20884766E-01
  11761.025      -0.71310238      -0.72481990       -1.6101336      -0.72555377      -0.29845713E-02  -0.20694577E-03    136215.00       0.12723185E-01
  11764.879      -0.72663104      -0.72670219       -1.6115224      -0.72764811      -0.31367677E-02   0.91743932E-04    136135.00       0.77247440E-04
  11768.773      -0.73740389      -0.72862286       -1.6129254      -0.72976382      -0.22738026E-02   0.21885022E-03    135987.00      -0.95346704E-02
  11772.698      -0.74440843      -0.73057813       -1.6143399      -0.73189697      -0.14257201E-02   0.17422753E-03    135747.00      -0.15017301E-01
  11776.669      -0.74866262      -0.73257512       -1.6157712      -0.73405557      -0.89795047E-03   0.10616717E-03    135604.00      -0.17468223E-01
  11780.673      -0.75157007      -0.73460627       -1.6172140      -0.73623170      -0.57897961E-03   0.70241634E-04    135390.00      -0.18419739E-01
  11784.709      -0.75331743      -0.73667121       -1.6186684      -0.73842539      -0.33323021E-03   0.58066497E-04    135188.00      -0.18074895E-01
  11788.792      -0.75427545      -0.73877719       -1.6201397      -0.74064466      -0.10755862E-03   0.78377345E-04    135099.00      -0.16828405E-01
  11792.907      -0.75419917      -0.74091631       -1.6216226      -0.74288159       0.30928846E-03   0.12681877E-03    134860.00      -0.14422872E-01
  11797.062      -0.75171773      -0.74309197       -1.6231198      -0.74514021       0.94119329E-03   0.13739840E-03    134591.00      -0.93660712E-02
  11801.249      -0.74634796      -0.74529987       -1.6246286      -0.74741657       0.14554330E-02   0.69154240E-04    134486.00      -0.11380499E-02
  11805.476      -0.73947174      -0.74754338       -1.6261519      -0.74971470       0.15230557E-02  -0.51033736E-04    134432.00       0.87643909E-02
  11809.742      -0.73341157      -0.74982201       -1.6276895      -0.75203465       0.10219672E-02  -0.17171304E-03    134182.00       0.17818882E-01
  11814.049      -0.73070978      -0.75213521       -1.6292415      -0.75437648       0.50853338E-04  -0.22857025E-03    134010.00       0.23264287E-01
  11818.389      -0.73297187      -0.75447839       -1.6308053      -0.75673623      -0.95432435E-03  -0.20960868E-03    133306.00       0.23352338E-01
  11822.761      -0.73902365      -0.75685083       -1.6323809      -0.75911393      -0.17752114E-02  -0.16203734E-03    133571.00       0.19357218E-01
  11827.181      -0.74857982      -0.75925984       -1.6339737      -0.76151766      -0.23789826E-02  -0.93871813E-04    133356.00       0.11596649E-01
  11831.626      -0.76011407      -0.76169256       -1.6355757      -0.76393541      -0.26074141E-02   0.22826966E-04    133107.00       0.17139756E-02
  11836.119      -0.77188655      -0.76416031       -1.6371949      -0.76637930      -0.21749406E-02   0.15179600E-03    133059.00      -0.83893518E-02
  11840.646      -0.77973099      -0.76665409       -1.6388260      -0.76884133      -0.12382871E-02   0.19917783E-03    132852.00      -0.14199231E-01
  11845.205      -0.78313733      -0.76917295       -1.6404690      -0.77132154      -0.36525860E-03   0.14646457E-03    132631.00      -0.15162892E-01
  11849.813      -0.78307931      -0.77172409       -1.6421294      -0.77382805       0.10435222E-03   0.37083970E-04    132492.00      -0.12329794E-01
  11854.446      -0.78217302      -0.77429414       -1.6437991      -0.77634880      -0.22567491E-04  -0.74875103E-04    132243.00      -0.85550910E-02
  11859.128      -0.78328953      -0.77689435       -1.6454863      -0.77889595      -0.59311685E-03  -0.96553847E-04    131994.00      -0.69440463E-02
  11863.836      -0.78774203      -0.77951118       -1.6471828      -0.78145743      -0.92915114E-03   0.75229648E-05    131837.00      -0.89372783E-02
  11868.592      -0.79208292      -0.78215578       -1.6488967      -0.78404543      -0.52192026E-03   0.11750886E-03    131703.00      -0.10779142E-01
  11873.374      -0.79272039      -0.78481455       -1.6506201      -0.78664785       0.19171184E-03   0.11741055E-03    131529.00      -0.85843676E-02
  11878.198      -0.79024135      -0.78749534       -1.6523583      -0.78927283       0.60591494E-03   0.49787114E-04    131355.00      -0.29816869E-02
  11883.062      -0.78685008      -0.79019825       -1.6541114      -0.79192043       0.67406683E-03  -0.30855009E-05    131213.00       0.36355301E-02
  11887.961      -0.78366009      -0.79291919       -1.6558768      -0.79458666       0.57578959E-03  -0.52379102E-04    131070.00       0.10053778E-01
  11892.901      -0.78118495      -0.79566242       -1.6576570      -0.79727562       0.15871513E-03  -0.12072792E-03    130893.00       0.15720017E-01
  11897.876      -0.78208652      -0.79842387       -1.6594496      -0.79998330      -0.62115528E-03  -0.16032670E-03    130625.00       0.17739516E-01
  11902.884      -0.78738571      -0.80120362       -1.6612544      -0.80270975      -0.14417654E-02  -0.13694979E-03    130285.00       0.15003855E-01
  11907.934      -0.79658852      -0.80400593       -1.6630743      -0.80545908      -0.19986647E-02  -0.51538355E-04    129633.00       0.80540226E-02
  11913.026      -0.80765629      -0.80683091       -1.6649092      -0.80823138      -0.19644705E-02   0.64752204E-04    129992.00      -0.89621407E-03
  11918.145      -0.81664736      -0.80967032       -1.6667539      -0.81101851      -0.13374923E-02   0.13087550E-03    129182.00      -0.75758484E-02
  11923.306      -0.82140533      -0.81253258       -1.6686137      -0.81382870      -0.61910706E-03   0.10945939E-03    129828.00      -0.96342616E-02
  11928.509      -0.82306368      -0.81541783       -1.6704887      -0.81666202      -0.20307270E-03   0.44049422E-04    129612.00      -0.83020703E-02
  11933.746      -0.82352554      -0.81832199       -1.6723761      -0.81951442      -0.15920202E-03  -0.84374223E-05    129266.00      -0.56501585E-02
  11939.019      -0.82473691      -0.82124516       -1.6742761      -0.82238595      -0.29175102E-03  -0.36912944E-04    129042.00      -0.37914335E-02
  11944.326      -0.82661220      -0.82418748       -1.6761887      -0.82527667      -0.54973174E-03  -0.47462241E-04    129005.00      -0.26328222E-02
  11949.676      -0.83059547      -0.82715323       -1.6781166      -0.82819074      -0.79756182E-03  -0.65347373E-05    128724.00      -0.37376743E-02
  11955.061      -0.83517376      -0.83013836       -1.6800571      -0.83112410      -0.61987999E-03   0.64378641E-04    128467.00      -0.54675727E-02
  11960.481      -0.83729319      -0.83314298       -1.6820103      -0.83407681      -0.10195962E-03   0.72075472E-04    127792.00      -0.45064038E-02
  11965.944      -0.83628337      -0.83617143       -1.6839789      -0.83705306       0.16450369E-03   0.11661367E-04    128263.00      -0.12154801E-03
  11971.442      -0.83549007      -0.83921962       -1.6859602      -0.84004876       0.25859926E-04  -0.30978565E-04    127981.00       0.40496453E-02
  11976.975      -0.83599809      -0.84228772       -1.6879543      -0.84306398      -0.17724224E-03  -0.26622952E-04    127649.00       0.68294409E-02
  11982.544      -0.83745793      -0.84537583       -1.6899612      -0.84609877      -0.26972513E-03  -0.16996236E-04    127426.00       0.85974677E-02
  11988.157      -0.83901399      -0.84848833       -1.6919837      -0.84915733      -0.36728344E-03  -0.36105878E-04    127278.00       0.10287493E-01
  11993.805      -0.84159365      -0.85162115       -1.6940190      -0.85223558      -0.67628815E-03  -0.61894350E-04    127035.00       0.10888119E-01
  11999.489      -0.84667757      -0.85477443       -1.6960672      -0.85533358      -0.10686597E-02  -0.64725961E-04    126938.00       0.87917829E-02
  12005.208      -0.85378015      -0.85794832       -1.6981284      -0.85845137      -0.14143932E-02  -0.43891449E-04    126660.00       0.45259008E-02
  12010.964      -0.86290837      -0.86114298       -1.7002026      -0.86158903      -0.15723338E-02   0.99074172E-05    126731.00      -0.19169028E-02
  12016.763      -0.87194877      -0.86436281       -1.7022925      -0.86475076      -0.12999111E-02   0.69104857E-04    126668.00      -0.82370390E-02
  12022.599      -0.87803300      -0.86760373       -1.7043955      -0.86793247      -0.76828983E-03   0.82543833E-04    126255.00      -0.11324376E-01
  12028.463      -0.88093776      -0.87086167       -1.7065088      -0.87113005      -0.33414831E-03   0.54494793E-04    125866.00      -0.10940884E-01
  12034.372      -0.88196683      -0.87414529       -1.7086379      -0.87435189      -0.12673844E-03   0.20988781E-04    125679.00      -0.84928362E-02
  12040.317      -0.88244003      -0.87745052       -1.7107803      -0.87759389      -0.85362612E-04   0.18279668E-05    125459.00      -0.54177344E-02
  12046.306      -0.88298556      -0.88078181       -1.7129385      -0.88086029      -0.10492337E-03  -0.29696587E-05    125202.00      -0.23928864E-02
  12052.324      -0.88369988      -0.88413066       -1.7151073      -0.88414279      -0.12102043E-03  -0.81576888E-05    124963.00       0.46775488E-03
  12058.379      -0.88444666      -0.88750126       -1.7172893      -0.88744562      -0.20341303E-03  -0.17936756E-04    124681.00       0.33167594E-02
  12064.479      -0.88617230      -0.89089778       -1.7194874      -0.89077305      -0.33903560E-03  -0.16944761E-04    124438.00       0.51310470E-02
  12070.608      -0.88859259      -0.89431152       -1.7216961      -0.89411673      -0.41062373E-03  -0.84744510E-05    124328.00       0.62097620E-02
  12076.774      -0.89122093      -0.89774666       -1.7239181      -0.89748094      -0.44322931E-03  -0.15783105E-04    124153.00       0.70858083E-02
  12082.985      -0.89407849      -0.90120737       -1.7261563      -0.90086994      -0.60597279E-03  -0.34131606E-04    123993.00       0.77407255E-02
  12089.225      -0.89876630      -0.90468491       -1.7284052      -0.90427537      -0.86822446E-03  -0.28802874E-04    123764.00       0.64265805E-02
  12095.511      -0.90495427      -0.90818775       -1.7306704      -0.90770574      -0.96677084E-03  -0.18559407E-05    123274.00       0.35110061E-02
  12101.827      -0.91094902      -0.91170714       -1.7329463      -0.91115266      -0.89161203E-03   0.80365614E-05    123173.00       0.82317876E-03
  12108.180      -0.91625004      -0.91524720       -1.7352358      -0.91462041      -0.86495621E-03   0.38619322E-05    122867.00      -0.10889020E-02
  12114.579      -0.92197903      -0.91881212       -1.7375418      -0.91811329      -0.84236428E-03   0.39826788E-05    122745.00      -0.34387197E-02
  12121.008      -0.92705567      -0.92239306       -1.7398585      -0.92162291      -0.81386744E-03   0.57628038E-05    122867.00      -0.50627761E-02
  12127.475      -0.93247454      -0.92599419       -1.7421890      -0.92515356      -0.76804809E-03   0.18562767E-04    122534.00      -0.70365340E-02
  12133.980      -0.93701872      -0.92961530       -1.7445331      -0.92870530      -0.57307271E-03   0.29222592E-04    122248.00      -0.80388295E-02
  12140.523      -0.93995212      -0.93325621       -1.7468911      -0.93227821      -0.38674528E-03   0.20148898E-04    121845.00      -0.72705846E-02
  12147.105      -0.94209466      -0.93691672       -1.7492628      -0.93587234      -0.30862366E-03   0.81699134E-05    121608.00      -0.56223354E-02
  12153.725      -0.94402641      -0.94059662       -1.7516484      -0.93948777      -0.27889016E-03   0.49588766E-05    121427.00      -0.37241523E-02
  12160.375      -0.94579571      -0.94429135       -1.7540451      -0.94312029      -0.24281610E-03   0.43410919E-05    121224.00      -0.16334790E-02
  12167.072      -0.94726749      -0.94800936       -1.7564585      -0.94677852      -0.22094588E-03   0.69140584E-06    118691.00       0.80554652E-03
  12173.801      -0.94876197      -0.95174174       -1.7588831      -0.95045396      -0.23353378E-03  -0.77721071E-05    120918.00       0.32355039E-02
  12180.568      -0.95041905      -0.95549258       -1.7613217      -0.95415097      -0.32583124E-03  -0.15186051E-04    120758.00       0.55089692E-02
  12187.374      -0.95318447      -0.95926163       -1.7637743      -0.95786960      -0.43965375E-03  -0.18412748E-04    120071.00       0.65987344E-02
  12194.211      -0.95641734      -0.96304429       -1.7662382      -0.96160564      -0.57704059E-03  -0.21613981E-04    120183.00       0.71957059E-02
  12201.087      -0.96109784      -0.96684463       -1.7687162      -0.96536345      -0.73606141E-03  -0.19626530E-04    119888.00       0.62400140E-02
  12208.003      -0.96656930      -0.97066237       -1.7712084      -0.96914309      -0.84773480E-03  -0.94749260E-05    119087.00       0.44443647E-02
  12214.958      -0.97285682      -0.97449722       -1.7737149      -0.97294463      -0.86748868E-03   0.63934210E-05    119038.00       0.17811982E-02
  12221.953      -0.97867085      -0.97834890       -1.7762356      -0.97676816      -0.75854594E-03   0.14492845E-04    119198.00      -0.34958507E-03
  12228.980      -0.98349275      -0.98221273       -1.7787677      -0.98060941      -0.66427754E-03   0.76050247E-05    119186.00      -0.13898805E-02
  12236.046      -0.98803257      -0.98609275       -1.7813142      -0.98447277      -0.65136772E-03   0.15122926E-06    118839.00      -0.21062989E-02
  12243.145      -0.99271931      -0.98998430       -1.7838722      -0.98835400      -0.66213539E-03  -0.60501368E-05    118489.00      -0.29697434E-02
  12250.291      -0.99746462      -0.99389572       -1.7864476      -0.99226181      -0.73755131E-03  -0.38462156E-05    118312.00      -0.38751989E-02
  12257.462       -1.0032790      -0.99781365       -1.7890316      -0.99618328      -0.71720235E-03   0.14102146E-04    118109.00      -0.59343846E-02
  12264.681       -1.0077849       -1.0017509       -1.7916331       -1.0001315      -0.53462567E-03   0.24470356E-04    117912.00      -0.65519367E-02
  12271.932       -1.0110152       -1.0056989       -1.7942462       -1.0040978      -0.36310675E-03   0.22545271E-04    117531.00      -0.57726159E-02
  12279.224       -1.0130658       -1.0096621       -1.7968740       -1.0080867      -0.20674077E-03   0.14368064E-04    117271.00      -0.36958082E-02
  12286.549       -1.0140371       -1.0136363       -1.7995136       -1.0120938      -0.15309436E-03   0.27912463E-06    117032.00      -0.43518237E-03
  12293.914       -1.0153147       -1.0176260       -1.8021678       -1.0161236      -0.20264041E-03  -0.10570519E-04    116229.00       0.25096198E-02
  12301.313       -1.0170288       -1.0216270       -1.8048339       -1.0201719      -0.30915496E-03  -0.16126418E-04    116805.00       0.49928303E-02
  12308.752       -1.0199019       -1.0256438       -1.8075148       -1.0242429      -0.44191904E-03  -0.17306402E-04    116577.00       0.62347147E-02
  12316.232       -1.0236222       -1.0296765       -1.8102105       -1.0283369      -0.56736406E-03  -0.19135375E-04    116055.00       0.65739679E-02
  12323.746       -1.0284091       -1.0337210       -1.8129182       -1.0324494      -0.72884020E-03  -0.16241575E-04    115858.00       0.57678634E-02
  12331.293       -1.0345992       -1.0377775       -1.8156379       -1.0365807      -0.81197680E-03  -0.33740600E-05    115610.00       0.34511522E-02
  12338.882       -1.0406990       -1.0418504       -1.8183726       -1.0407350      -0.77990923E-03   0.65714993E-05    115447.00       0.12502970E-02
  12346.504       -1.0464623       -1.0459357       -1.8211193       -1.0449082      -0.71201838E-03   0.93510498E-05    115258.00      -0.57177022E-03
  12354.168       -1.0515831       -1.0500378       -1.8238812       -1.0491046      -0.63696647E-03   0.87121242E-05    114779.00      -0.16779580E-02
  12361.874       -1.0562524       -1.0541568       -1.8266581       -1.0533244      -0.57811329E-03   0.57226316E-05    114695.00      -0.22754513E-02
  12369.606       -1.0605079       -1.0582845       -1.8294444       -1.0575588      -0.54862185E-03   0.20864707E-05    114530.00      -0.24142087E-02
  12377.380       -1.0647592       -1.0624295       -1.8322459       -1.0618168      -0.54576091E-03   0.46880778E-06    114451.00      -0.25296592E-02
  12385.196       -1.0690164       -1.0665922       -1.8350626       -1.0660983      -0.54131303E-03   0.61795499E-06    114086.00      -0.26322603E-02
  12393.047       -1.0732399       -1.0707684       -1.8378916       -1.0703990      -0.53607950E-03   0.23618996E-05    113718.00      -0.26836390E-02
  12400.932       -1.0774519       -1.0749583       -1.8407331       -1.0747191      -0.50414712E-03   0.64115886E-05    113414.00      -0.27076329E-02
  12408.860       -1.0812119       -1.0791665       -1.8435900       -1.0790629      -0.43469485E-03   0.69883678E-05    112986.00      -0.22208542E-02
  12416.822       -1.0843593       -1.0833890       -1.8464593       -1.0834263      -0.39310140E-03   0.30331091E-05    112894.00      -0.10536061E-02
  12424.819       -1.0874856       -1.0876258       -1.8493412       -1.0878091      -0.38628779E-03  -0.10515351E-05    112637.00       0.15226333E-03
  12432.851       -1.0905512       -1.0918773       -1.8522357       -1.0922115      -0.40995672E-03  -0.42941556E-05    112596.00       0.14399723E-02
  12440.927       -1.0940889       -1.0961481       -1.8551458       -1.0966381      -0.45545535E-03  -0.54246792E-05    112190.00       0.22359702E-02
  12449.037       -1.0979231       -1.1004341       -1.8580685       -1.1010844      -0.49775916E-03  -0.47518546E-05    111758.00       0.27265741E-02
  12457.183       -1.1021806       -1.1047356       -1.8610039       -1.1055505      -0.53270235E-03  -0.55527030E-05    111433.00       0.27743024E-02
  12465.372       -1.1066248       -1.1090571       -1.8639551       -1.1100410      -0.58846301E-03  -0.58433802E-05    111212.00       0.26410521E-02
  12473.597       -1.1118397       -1.1133946       -1.8669190       -1.1145515      -0.62861694E-03  -0.23578501E-05    110950.00       0.16883515E-02
  12481.857       -1.1169878       -1.1177485       -1.8698958       -1.1190820      -0.62733319E-03   0.13385840E-06    110917.00       0.82592836E-03
  12490.154       -1.1222264       -1.1221189       -1.8728855       -1.1236326      -0.62640066E-03   0.65318031E-06    110692.00      -0.11674098E-03
  12498.486       -1.1274040       -1.1265062       -1.8758882       -1.1282034      -0.61647174E-03   0.19958992E-05    110384.00      -0.97479925E-03
  12506.863       -1.1325269       -1.1309151       -1.8789068       -1.1327989      -0.59305168E-03   0.30998137E-05    109983.00      -0.17501404E-02
  12515.267       -1.1373559       -1.1353368       -1.8819354       -1.1374103      -0.56445399E-03   0.38425531E-05    109719.00      -0.21923573E-02
  12523.716       -1.1420398       -1.1397795       -1.8849801       -1.1420467      -0.52829163E-03   0.48459986E-05    109408.00      -0.24543343E-02
  12532.201       -1.1463022       -1.1442377       -1.8880380       -1.1467035      -0.48239005E-03   0.33783628E-05    109270.00      -0.22416463E-02
  12540.723       -1.1502440       -1.1487106       -1.8911090       -1.1513809      -0.47083470E-03   0.12053166E-05    109264.00      -0.16649980E-02
  12549.282       -1.1543443       -1.1531971       -1.8941932       -1.1560789      -0.46180260E-03   0.17563525E-05    109042.00      -0.12456416E-02
  12557.877       -1.1581658       -1.1576963       -1.8972906       -1.1607977      -0.44070622E-03   0.16654193E-05    108720.00      -0.50977572E-03
  12566.510       -1.1619367       -1.1622070       -1.9004014       -1.1655372      -0.43311120E-03  -0.45416245E-06    108425.00       0.29357204E-03
  12575.187       -1.1656630       -1.1667327       -1.9035286       -1.1703022      -0.44856780E-03  -0.10830817E-05    107989.00       0.11615652E-02
  12583.894       -1.1697347       -1.1712635       -1.9066661       -1.1750836      -0.45193985E-03  -0.30375266E-05    107711.00       0.16599380E-02
  12592.638       -1.1735495       -1.1758025       -1.9098171       -1.1798860      -0.50157407E-03  -0.58425123E-05    107338.00       0.24463987E-02
  12601.419       -1.1785249       -1.1803488       -1.9129816       -1.1847095      -0.55433122E-03  -0.29023183E-05    106460.00       0.19804373E-02
  12610.238       -1.1833059       -1.1849011       -1.9161596       -1.1895542      -0.55265559E-03   0.28780444E-06    106811.00       0.17321503E-02
  12619.103       -1.1882981       -1.1894626       -1.9193543       -1.1944248      -0.54924170E-03  -0.45087959E-06    106600.00       0.12644415E-02
  12627.998       -1.1930602       -1.1940232       -1.9225595       -1.1993122      -0.56066300E-03  -0.11303373E-05    105470.00       0.10457542E-02
  12636.930       -1.1982930       -1.1985863       -1.9257784       -1.2042209      -0.56939216E-03   0.61514996E-06    106149.00       0.31846930E-03
  12645.901       -1.2032540       -1.2031503       -1.9290111       -1.2091512      -0.54964995E-03   0.16232572E-05    105769.00      -0.11258817E-03
  12654.901       -1.2081707       -1.2077098       -1.9322545       -1.2140984      -0.54022075E-03   0.61463386E-06    105546.00      -0.50045449E-03
  12663.948       -1.2130036       -1.2122719       -1.9355148       -1.2190719      -0.53855733E-03   0.10102002E-05    105316.00      -0.79454664E-03
  12673.034       -1.2179363       -1.2168310       -1.9387890       -1.2240672      -0.52190288E-03   0.26466516E-05    105096.00      -0.12001448E-02
  12682.150       -1.2225031       -1.2213814       -1.9420740       -1.2290797      -0.49038406E-03   0.22835439E-05    104785.00      -0.12179564E-02
  12691.304       -1.2268959       -1.2259260       -1.9453730       -1.2341141      -0.48018134E-03   0.21762860E-05    104404.00      -0.10531160E-02
  12700.498       -1.2313136       -1.2304632       -1.9486861       -1.2391704      -0.45045311E-03   0.27156753E-05    104398.00      -0.92336128E-03
  12709.731       -1.2351960       -1.2349916       -1.9520132       -1.2442489      -0.43014180E-03  -0.38054324E-06    104147.00      -0.22196783E-03
  12719.002       -1.2392731       -1.2395095       -1.9553544       -1.2493495      -0.45749485E-03  -0.23397370E-05    103705.00       0.25670896E-03
  12728.305       -1.2436937       -1.2440114       -1.9587067       -1.2544676      -0.47360105E-03  -0.13181695E-05    103437.00       0.34495208E-03
  12737.647       -1.2481032       -1.2484997       -1.9620733       -1.2596081      -0.48207167E-03  -0.12383570E-05    103097.00       0.43045185E-03
  12747.029       -1.2527199       -1.2529728       -1.9654541       -1.2647710      -0.49678772E-03  -0.17095244E-05    102773.00       0.27459128E-03
  12756.450       -1.2574444       -1.2574290       -1.9688492       -1.2699564      -0.51421603E-03  -0.22562931E-05    102567.00      -0.16758867E-04
  12765.903       -1.2624253       -1.2618625       -1.9722557       -1.2751597      -0.53937328E-03  -0.93221352E-06    101863.00      -0.61104140E-03
  12775.396       -1.2676631       -1.2662757       -1.9756765       -1.2803856      -0.53187721E-03   0.14556016E-05    101978.00      -0.15063723E-02
  12784.920       -1.2725399       -1.2706629       -1.9791087       -1.2856295      -0.51169217E-03   0.18451635E-05    101776.00      -0.20381498E-02
  12794.493       -1.2774351       -1.2750301       -1.9825585       -1.2909010      -0.49663933E-03   0.15486478E-05    101514.00      -0.26113750E-02
  12804.098       -1.2820646       -1.2820646       -1.9860198       -1.2961906      -0.48199192E-03   0.15249787E-05    101155.00        0.0000000
