# XDI/1.0 Hephaestus/0.9.26
# Element.edge:                  K
# Element.symbol:                Rh
# Column.1:                      energy eV
# Column.2:                      xmu
# Column.3:                      bkg
# Column.4:                      pre_edge
# Column.5:                      post_edge
# Column.6:                      der
# Column.7:                      sec
# Column.8:                      i0
# Column.9:                      chi(e)
# Athena.e0:                     23218.50395
# Athena.eshift:                 0
# Athena.rbkg:                   1
# Athena.importance:             1
# Athena.standard:               None
# Athena.bkg_kweight:            2
# Athena.edge_step:              0.8676098
# Athena.fixed_step:             no
# Athena.pre_edge_range:         -150.000 -60.000
# Athena.pre_edge_line:          -1.170543 + 4.24296e-005 * E
# Athena.normalization_range:    100.000 1000.000
# Athena.post_edge_polynomial:   156.423112 - 0.0132405 * E + 2.81366101e-007 * E^2 + 0 * E^3
# Athena.spline_range_energy:    0.000 776.382
# Athena.clamps:                 0 24
# Athena.spline_range_k:         0.000 14.275
# Athena.kweight:                1
# Athena.window:                 hanning
# Athena.phase_correction:       no
# Athena.k_range:                3.000 14.275
# Athena.dk:                     1
# Athena.r_range:                1 3
# Athena.dr:                     0.0
# Athena.window:                 hanning
# Athena.plot_multiplier:        1
# Athena.y_offset:               0
# ///
#------------------------
#   e         xmu        bkg        pre_edge        post_edge        der        sec        i0        chie
  23019.990      -0.18978571      -0.18978571      -0.19381280       0.72799228       0.48098250E-04  -0.56021608E-05    42734.000        0.0000000
  23030.007      -0.18930391      -0.18930391      -0.19338778       0.72515135      -0.80184267E-05  -0.35058014E-05    41769.000        0.0000000
  23040.004      -0.18994620      -0.18994620      -0.19296360       0.72237225      -0.22068402E-04  -0.87155646E-06    41265.000        0.0000000
  23050.010      -0.18974536      -0.18974536      -0.19253904       0.71964705      -0.25452737E-04  -0.10592988E-05    40887.000        0.0000000
  23059.997      -0.19045507      -0.19045507      -0.19211531       0.71698336      -0.43246740E-04   0.10926890E-05    40653.000        0.0000000
  23069.992      -0.19060952      -0.19060952      -0.19169121       0.71437354      -0.36187246E-05   0.93500113E-06    40393.000        0.0000000
  23079.996      -0.19052744      -0.19052744      -0.19126674       0.71181774      -0.24547372E-04  -0.79485257E-06    40293.000        0.0000000
  23090.009      -0.19110087      -0.19110087      -0.19084191       0.70931612      -0.19529050E-04   0.17804895E-05    40013.000        0.0000000
  23100.002      -0.19091813      -0.19091813      -0.19041791       0.70687566       0.11072619E-04   0.20170962E-05    39960.000        0.0000000
  23110.004      -0.19087948      -0.19087948      -0.18999354       0.70448934       0.20802283E-04   0.20329273E-05    39831.000        0.0000000
  23120.014      -0.19050184      -0.19050184      -0.18956880       0.70215732       0.51755824E-04   0.23053165E-05    39608.000        0.0000000
  23130.005      -0.18984431      -0.18984431      -0.18914490       0.69988613       0.66911034E-04   0.20537213E-05    39663.000        0.0000000
  23140.004      -0.18916429      -0.18916429      -0.18872063       0.69766920       0.92809610E-04   0.38637935E-05    39493.000        0.0000000
  23150.012      -0.18798744      -0.18798744      -0.18829600       0.69550669       0.14421511E-03   0.73347315E-05    39247.000        0.0000000
  23160.000      -0.18628054      -0.18628054      -0.18787221       0.69340467       0.23947578E-03   0.13178593E-04    39158.000        0.0000000
  23169.997      -0.18320153      -0.18320153      -0.18744805       0.69135704       0.40758824E-03   0.21428265E-04    38999.000        0.0000000
  23180.002      -0.17812787      -0.17812787      -0.18702352       0.68936394       0.66808908E-03   0.43111284E-04    38830.000        0.0000000
  23189.988      -0.16984580      -0.16984580      -0.18659984       0.68743099       0.12694238E-02   0.49949490E-04    38742.000        0.0000000
  23200.011      -0.15272887      -0.15272887      -0.18617457       0.68554724       0.16674930E-02   0.58055024E-04    38610.000        0.0000000
  23200.498      -0.15232073      -0.15232073      -0.18615391       0.68545714       0.18795722E-02   0.12328636E-02    38600.000        0.0000000
  23201.013      -0.15084411      -0.15084411      -0.18613203       0.68536189       0.29037593E-02   0.83569126E-03    38645.000        0.0000000
  23201.500      -0.14940884      -0.14940884      -0.18611136       0.68527206       0.27176034E-02   0.64685242E-05    38654.000        0.0000000
  23201.988      -0.14819665      -0.14819665      -0.18609069       0.68518235       0.29100608E-02   0.67668944E-03    38600.000        0.0000000
  23202.503      -0.14649037      -0.14649037      -0.18606881       0.68508752       0.33962485E-02   0.91104036E-03    38583.000        0.0000000
  23202.990      -0.14479048      -0.14479048      -0.18604814       0.68499809       0.38237614E-02  -0.65467284E-03    38595.000        0.0000000
  23203.506      -0.14265525      -0.14265525      -0.18602625       0.68490353       0.27396312E-02   0.81049498E-03    38609.000        0.0000000
  23203.993      -0.14204258      -0.14204258      -0.18600558       0.68481437       0.46367041E-02   0.16988152E-02    38637.000        0.0000000
  23204.509      -0.13800436      -0.13800436      -0.18598369       0.68472010       0.44436449E-02  -0.16208544E-02    38674.000        0.0000000
  23204.997      -0.13758516      -0.13758516      -0.18596302       0.68463120       0.30108251E-02   0.12470616E-02    38651.000        0.0000000
  23205.513      -0.13498405      -0.13498405      -0.18594113       0.68453721       0.56946347E-02   0.24028522E-02    38694.000        0.0000000
  23206.000      -0.13187236      -0.13187236      -0.18592045       0.68444858       0.54213424E-02  -0.14133181E-03    38684.000        0.0000000
  23206.487      -0.12970057      -0.12970057      -0.18589978       0.68436007       0.55568969E-02   0.84634417E-03    38610.000        0.0000000
  23207.003      -0.12629723      -0.12629723      -0.18587789       0.68426651       0.62704626E-02   0.12985705E-03    38672.000        0.0000000
  23207.490      -0.12340929      -0.12340929      -0.18585721       0.68417827       0.56871851E-02   0.15046346E-02    38638.000        0.0000000
  23208.006      -0.12059094      -0.12059094      -0.18583531       0.68408499       0.77801527E-02   0.23755389E-02    38646.000        0.0000000
  23208.494      -0.11560269      -0.11560269      -0.18581463       0.68399702       0.80708008E-02  -0.12024594E-02    38670.000        0.0000000
  23209.010      -0.11249229      -0.11249229      -0.18579274       0.68390402       0.65735449E-02   0.21220681E-02    38660.000        0.0000000
  23209.497      -0.10900613      -0.10900613      -0.18577206       0.68381632       0.10200296E-01   0.37447586E-02    38743.000        0.0000000
  23210.013      -0.10225589      -0.10225589      -0.18575016       0.68372361       0.10331560E-01  -0.86873810E-03    38712.000        0.0000000
  23210.501      -0.98637588E-01  -0.98637588E-01  -0.18572947       0.68363617       0.93284480E-02   0.50964692E-02    38759.000        0.0000000
  23210.988      -0.93161117E-01  -0.93161117E-01  -0.18570879       0.68354887       0.15300363E-01   0.44464478E-02    38663.000        0.0000000
  23211.505      -0.83281226E-01  -0.83281226E-01  -0.18568689       0.68345658       0.13791170E-01  -0.99837951E-03    38654.000        0.0000000
  23211.992      -0.79318782E-01  -0.79318782E-01  -0.18566620       0.68336954       0.14298279E-01   0.62947790E-02    38692.000        0.0000000
  23212.508      -0.68929186E-01  -0.68929186E-01  -0.18564430       0.68327753       0.20109617E-01   0.26904417E-02    38733.000        0.0000000
  23212.996      -0.59132748E-01  -0.59132748E-01  -0.18562361       0.68319077       0.16998944E-01   0.10641868E-03    38709.000        0.0000000
  23213.512      -0.51864965E-01  -0.51864965E-01  -0.18560171       0.68309904       0.20216445E-01   0.92473705E-02    38735.000        0.0000000
  23214.000      -0.38837864E-01  -0.38837864E-01  -0.18558102       0.68301254       0.26282195E-01   0.40207361E-02    38685.000        0.0000000
  23214.487      -0.26233518E-01  -0.26233518E-01  -0.18556033       0.68292617       0.24137627E-01   0.33919794E-02    38750.000        0.0000000
  23215.004      -0.14604410E-01  -0.14604410E-01  -0.18553842       0.68283487       0.29687640E-01   0.11929364E-01    38745.000        0.0000000
  23215.491       0.35734670E-02   0.35734670E-02  -0.18551773       0.68274877       0.36114947E-01   0.17622765E-02    38687.000        0.0000000
  23216.008       0.21657163E-01   0.21657163E-01  -0.18549582       0.68265774       0.31457072E-01   0.51247833E-02    38741.000        0.0000000
  23216.495       0.35159513E-01   0.35159513E-01  -0.18547512       0.68257191       0.41260742E-01   0.83086685E-02    38757.000        0.0000000
  23217.012       0.63089137E-01   0.63089137E-01  -0.18545321       0.68248117       0.39800221E-01  -0.85975636E-02    38747.000        0.0000000
  23217.500       0.75126497E-01   0.75126497E-01  -0.18543252       0.68239561       0.32627154E-01   0.11774295E-01    38688.000        0.0000000
  23217.987       0.94918231E-01   0.94918231E-01  -0.18541182       0.68231017       0.51286517E-01   0.10556615E-01    38773.000        0.0000000
  23218.504       0.12663201       0.12663201      -0.18538991       0.68221986       0.43228846E-01  -0.12106301E-01    38834.000        0.0000000
  23218.992       0.13833339      -0.57222194E-01  -0.18536921       0.68213469       0.39128038E-01   0.44074165E-02    38648.000       0.22539578
  23219.508       0.16593064      -0.77027994E-02  -0.18534729       0.68204466       0.47655479E-01   0.36876525E-03    38739.000       0.20012849
  23219.996       0.18619903       0.36862230E-01  -0.18532659       0.68195976       0.39498429E-01  -0.31833745E-02    38760.000       0.17212439
  23220.513       0.20560484       0.81771456E-01  -0.18530467       0.68187001       0.44457939E-01   0.49453700E-02    38828.000       0.14272935
  23221.001       0.23085659       0.12208944      -0.18528397       0.68178539       0.44466004E-01  -0.81375187E-02    38720.000       0.12536413
  23221.489       0.24899655       0.16042173      -0.18526327       0.68170089       0.36517022E-01  -0.25638169E-02    38722.000       0.10209061
  23222.005       0.26754086       0.19890034      -0.18524135       0.68161156       0.41890445E-01   0.44213069E-02    38813.000       0.79114507E-01
  23222.493       0.29108052       0.23330324      -0.18522064       0.68152733       0.40958756E-01  -0.97865044E-02    38809.000       0.66593632E-01
  23223.010       0.30869048       0.26773444      -0.18519872       0.68143829       0.32058335E-01  -0.39884408E-02    38770.000       0.47205601E-01
  23223.498       0.32328985       0.29842253      -0.18517801       0.68135433       0.36951529E-01   0.71892428E-02    38735.000       0.28661877E-01
  23223.986       0.34475702       0.32738260      -0.18515731       0.68127050       0.39075396E-01  -0.86537120E-02    38761.000       0.20025623E-01
  23224.503       0.36255242       0.35621958      -0.18513538       0.68118188       0.28256366E-01  -0.62917343E-02    38760.000       0.72991836E-02
  23224.991       0.37315015       0.38178278      -0.18511467       0.68109832       0.32753209E-01   0.31924179E-02    38730.000      -0.99499062E-02
  23225.508       0.39546579       0.40713628      -0.18509274       0.68100998       0.31464395E-01  -0.34973337E-02    38808.000      -0.13451304E-01
  23225.996       0.40476935       0.42951578      -0.18507203       0.68092669       0.29238669E-01   0.68041355E-02    38793.000      -0.28522540E-01
  23226.513       0.42484978       0.45161259      -0.18505010       0.68083864       0.38302347E-01   0.15749598E-02    38728.000      -0.30846596E-01
  23227.001       0.44326397       0.47102363      -0.18502939       0.68075562       0.30821535E-01  -0.72369999E-02    38767.000      -0.31995558E-01
  23227.489       0.45494208       0.48907002      -0.18500868       0.68067272       0.31236574E-01   0.55541345E-02    38707.000      -0.39335593E-01
  23228.006       0.47465985       0.50674683      -0.18498674       0.68058509       0.36403995E-01  -0.22949479E-02    38748.000      -0.36983189E-01
  23228.494       0.49153319       0.52214294      -0.18496603       0.68050247       0.28929830E-01  -0.67144217E-02    38724.000      -0.35280555E-01
  23229.011       0.50373954       0.53712710      -0.18494410       0.68041513       0.29654793E-01   0.48605461E-02    38718.000      -0.38482231E-01
  23229.499       0.52134308       0.55008781      -0.18492338       0.68033277       0.33815797E-01  -0.27864495E-02    38774.000      -0.33130944E-01
  23229.988       0.53676236       0.56194268      -0.18490266       0.68025055       0.26933686E-01  -0.55618340E-02    38706.000      -0.29022637E-01
  23230.505       0.54842005       0.57334652      -0.18488072       0.68016363       0.28224374E-01   0.33940728E-02    38748.000      -0.28730049E-01
  23230.993       0.56513801       0.58308474      -0.18486000       0.68008167       0.30345951E-01  -0.46146155E-02    38678.000      -0.20685253E-01
  23231.510       0.57892987       0.59236106      -0.18483806       0.67999504       0.23584840E-01  -0.76560377E-02    38646.000      -0.15480682E-01
  23231.998       0.58885139       0.60019767      -0.18481734       0.67991335       0.22648188E-01  -0.69765517E-03    38716.000      -0.13077623E-01
  23232.487       0.60105171       0.60718810      -0.18479662       0.67983180       0.22903398E-01  -0.46466076E-02    38748.000      -0.70727551E-02
  23233.004       0.61188144       0.61372382      -0.18477468       0.67974559       0.17975885E-01  -0.48132076E-02    38720.000      -0.21235112E-02
  23233.492       0.61912790       0.61913200      -0.18475395       0.67966430       0.18063333E-01  -0.49488605E-02    38658.000      -0.47231412E-05
  23234.010       0.63004647       0.62410622      -0.18473201       0.67957837       0.12999162E-01  -0.99738477E-02    38628.000       0.68466927E-02
  23234.498       0.63220064       0.62814705      -0.18471128       0.67949736       0.80330331E-02  -0.19116354E-02    38732.000       0.46721329E-02
  23234.987       0.63789451       0.63160154      -0.18469056       0.67941647       0.11131552E-01  -0.24492062E-03    38692.000       0.72532202E-02
  23235.504       0.64339620       0.63467646      -0.18466861       0.67933097       0.77867041E-02  -0.58626703E-02    38738.000       0.10050299E-01
  23235.992       0.64572630       0.63708355      -0.18464788       0.67925035       0.52349364E-02  -0.44372478E-02    38733.000       0.99615588E-02
  23236.510       0.64866171       0.63916353      -0.18462593       0.67916514       0.33235429E-02  -0.28043190E-02    38690.000       0.10947520E-01
  23236.998       0.64906938       0.64073864      -0.18460520       0.67908479       0.24141280E-02  -0.17997528E-02    38723.000       0.96019444E-02
  23237.487       0.65102077       0.64198743      -0.18458447       0.67900457       0.15648424E-02  -0.28385106E-02    38674.000       0.10411750E-01
  23238.004       0.65064357       0.64301047      -0.18456252       0.67891978      -0.44132856E-03  -0.30549403E-02    38692.000       0.87978472E-02
  23238.493       0.65057679       0.64374752      -0.18454179       0.67883983      -0.15084580E-02  -0.26864594E-02    38653.000       0.78713516E-02
  23239.010       0.64912597       0.64434292      -0.18451983       0.67875533      -0.31440679E-02  -0.38177445E-02    38685.000       0.55128953E-02
  23239.499       0.64741354       0.64478395      -0.18449910       0.67867565      -0.53494908E-02  -0.54743175E-03    38743.000       0.30308474E-02
  23241.253       0.63713038       0.64607032      -0.18442469       0.67839083      -0.43716179E-02   0.49759640E-03    77323.000      -0.10304103E-01
  23242.518       0.63421641       0.64695085      -0.18437101       0.67818643      -0.38473368E-02   0.26169130E-03    77543.000      -0.14677605E-01
  23243.840       0.62717385       0.64783918      -0.18431489       0.67797369      -0.36943870E-02   0.94829570E-03    77568.000      -0.23818685E-01
  23245.192       0.62433588       0.64871345      -0.18425753       0.67775730      -0.13111484E-02   0.15275030E-02    77477.000      -0.28097388E-01
  23246.573       0.62359139       0.64957219      -0.18419896       0.67753735       0.47922481E-03   0.14026430E-02    77313.000      -0.29945258E-01
  23248.011       0.62568678       0.65043078      -0.18413793       0.67730935       0.26427901E-02   0.14137259E-02    77320.000      -0.28519727E-01
  23249.478       0.63127023       0.65126959      -0.18407567       0.67707796       0.45869185E-02   0.87451132E-03    77407.000      -0.23051104E-01
  23250.975       0.63928007       0.65208730      -0.18401219       0.67684325       0.52343957E-02   0.66022918E-03    77334.000      -0.14761509E-01
  23252.500       0.64708553       0.65288265      -0.18394747       0.67660529       0.65817482E-02   0.73512697E-03    77367.000      -0.66817039E-02
  23254.083       0.65973719       0.65366836      -0.18388031       0.67635971       0.75192879E-02   0.37846298E-03    77323.000       0.69948862E-02
  23255.695       0.67110913       0.65442797      -0.18381192       0.67611107       0.77909109E-02  -0.11842126E-03    77190.000       0.19226569E-01
  23257.365       0.68530502       0.65517294      -0.18374107       0.67585506       0.71306590E-02  -0.69098565E-03    77099.000       0.34729987E-01
  23259.035       0.69492404       0.65587663      -0.18367021       0.67560058       0.54831639E-02  -0.11833908E-02    77171.000       0.45005724E-01
  23260.762       0.70393609       0.65656249      -0.18359690       0.67533894       0.31096508E-02  -0.18430558E-02    77067.000       0.54602428E-01
  23262.519       0.70576045       0.65721731      -0.18352235       0.67507462      -0.93946155E-03  -0.22804729E-02    77070.000       0.55950431E-01
  23264.334       0.70058061       0.65785019      -0.18344535       0.67480341      -0.50355371E-02  -0.21236697E-02    77101.000       0.49250731E-01
  23266.178       0.68733693       0.65844960      -0.18336711       0.67452976      -0.87093320E-02  -0.14028121E-02    77053.000       0.33295313E-01
  23268.051       0.66820881       0.65901519      -0.18328764       0.67425374      -0.10249663E-01  -0.23162222E-04    77103.000       0.10596490E-01
  23269.953       0.64864292       0.65954678      -0.18320694       0.67397545      -0.87967729E-02   0.12501691E-02    77017.000      -0.12567702E-01
  23271.913       0.63423356       0.66005142      -0.18312377       0.67369082      -0.54212102E-02   0.18258099E-02    76973.000      -0.29757460E-01
  23273.903       0.62723261       0.66052089      -0.18303937       0.67340415      -0.15859922E-02   0.17134944E-02    76979.000      -0.38367800E-01
  23275.921       0.62787736       0.66095548      -0.18295372       0.67311556       0.14459785E-02   0.10956262E-02    76890.000      -0.38125572E-01
  23277.997       0.63315379       0.66136103      -0.18286562       0.67282106       0.29005205E-02   0.38268377E-03    76905.000      -0.32511437E-01
  23280.074       0.63992418       0.66172693      -0.18277750       0.67252894       0.30353905E-02  -0.12241270E-03    76777.000      -0.25129669E-01
  23282.209       0.64593819       0.66206422      -0.18268691       0.67223118       0.23849452E-02  -0.41525458E-03    76767.000      -0.18586738E-01
  23284.402       0.65024615       0.66237246      -0.18259387       0.67192798       0.12381812E-02  -0.41487086E-03    76629.000      -0.13976689E-01
  23286.596       0.65136946       0.66264486      -0.18250080       0.67162744       0.56511830E-03  -0.17438016E-03    76554.000      -0.12995943E-01
  23288.847       0.65275814       0.66289016      -0.18240526       0.67132174       0.46305091E-03   0.96821562E-04    76330.000      -0.11678082E-01
  23291.128       0.65346825       0.66310634      -0.18230848       0.67101497       0.10039649E-02   0.50000712E-03    76365.000      -0.11108792E-01
  23293.467       0.65739651       0.66329766      -0.18220924       0.67070342       0.27731088E-02   0.66148436E-03    76434.000      -0.68016286E-02
  23295.836       0.66652299       0.66346358      -0.18210874       0.67039109       0.41179819E-02   0.32383256E-03    76459.000       0.35262520E-02
  23298.234       0.67702429       0.66360674      -0.18200700       0.67007810       0.43166113E-02  -0.29381667E-03    76414.000       0.15464961E-01
  23300.661       0.68735120       0.66373006      -0.18190401       0.66976457       0.27002783E-02  -0.81640221E-03    76211.000       0.27225540E-01
  23303.147       0.69029030       0.66383788      -0.18179855       0.66944694       0.30576608E-03  -0.90168831E-03    76198.000       0.30488846E-01
  23305.633       0.68887137       0.66393117      -0.18169307       0.66913272      -0.17826274E-02  -0.69605674E-03    76080.000       0.28745872E-01
  23308.177       0.68132263       0.66401445      -0.18158510       0.66881473      -0.31958100E-02  -0.31147698E-03    76000.000       0.19949266E-01
  23310.780       0.67242139       0.66408741      -0.18147467       0.66849321      -0.33859116E-02   0.57057523E-04    76067.000       0.96056719E-02
  23313.412       0.66359643       0.66414896      -0.18136297       0.66817192      -0.28970979E-02   0.27798391E-03    75921.000      -0.63683606E-03
  23316.045       0.65716701       0.66419856      -0.18125126       0.66785446      -0.19222151E-02   0.38563059E-03    75965.000      -0.81045049E-02
  23318.766       0.65330601       0.66423760      -0.18113583       0.66753055      -0.83265539E-03   0.33739060E-03    75851.000      -0.12599660E-01
  23321.487       0.65263613       0.66426463      -0.18102038       0.66721074      -0.86310913E-04   0.18536273E-03    75781.000      -0.13402911E-01
  23324.267       0.65283124       0.66428022      -0.18090244       0.66688834       0.18696380E-03   0.99577435E-04    75742.000      -0.13196001E-01
  23327.076       0.65368104       0.66428406      -0.18078324       0.66656692       0.47021343E-03   0.10165520E-03    75841.000      -0.12220950E-01
  23329.915       0.65548707       0.66427619      -0.18066279       0.66624663       0.76112662E-03   0.87730565E-04    75720.000      -0.10130268E-01
  23332.812       0.65804720       0.66425644      -0.18053985       0.66592439       0.97347455E-03   0.92117570E-04    75665.000      -0.71567157E-02
  23335.710       0.66112915       0.66422529      -0.18041688       0.66560680       0.12950226E-02   0.64321071E-04    75639.000      -0.35685920E-02
  23338.667       0.66562987       0.66418226      -0.18029141       0.66528765       0.13500899E-02  -0.10791077E-04    75593.000       0.16685029E-02
  23341.683       0.66919284       0.66412717      -0.18016346       0.66496723       0.12305706E-02  -0.29413014E-04    75484.000       0.58386484E-02
  23344.700       0.67305298       0.66406128      -0.18003547       0.66465184       0.11726632E-02  -0.39883098E-04    75576.000       0.10363761E-01
  23347.775       0.67633653       0.66398353      -0.17990498       0.66433557       0.98760873E-03  -0.12965438E-03    75504.000       0.14237970E-01
  23350.880       0.67915689       0.66389476      -0.17977323       0.66402164       0.37133562E-03  -0.31035487E-03    75380.000       0.17591004E-01
  23354.044       0.67866452       0.66379428      -0.17963898       0.66370733      -0.95807424E-03  -0.38037692E-03    75130.000       0.17139309E-01
  23357.209       0.67309325       0.66368426      -0.17950469       0.66339857      -0.20360623E-02  -0.24971110E-03    75285.000       0.10844726E-01
  23360.433       0.66565652       0.66356303      -0.17936791       0.66308985      -0.25534285E-02  -0.10086282E-03    75165.000       0.24129387E-02
  23363.687       0.65655288       0.66343195      -0.17922985       0.66278420      -0.26894224E-02   0.10953052E-03    75311.000      -0.79287526E-02
  23366.971       0.64807407       0.66329143      -0.17909052       0.66248178      -0.18373585E-02   0.31366539E-03    75199.000      -0.17539405E-01
  23370.314       0.64437731       0.66314060      -0.17894868       0.66218014      -0.61086535E-03   0.34061984E-03    75072.000      -0.21626412E-01
  23373.686       0.64397163       0.66298117      -0.17880557       0.66188217       0.45016945E-03   0.28935455E-03    75112.000      -0.21910240E-01
  23377.089       0.64742761       0.66281369      -0.17866118       0.66158803       0.13497692E-02   0.20687731E-03    74988.000      -0.17733871E-01
  23380.522       0.65319872       0.66263875      -0.17851552       0.66129789       0.18643931E-02   0.60443113E-04    74809.000      -0.10880494E-01
  23384.015       0.66033923       0.66245541      -0.17836734       0.66100955       0.17683601E-02  -0.70957664E-04    74718.000      -0.24390979E-02
  23387.537       0.66560335       0.66226582      -0.17821788       0.66072568       0.13666421E-02  -0.12296484E-03    74624.000       0.38468040E-02
  23391.090       0.67000837       0.66207070      -0.17806715       0.66044644       0.89837037E-03  -0.13965781E-03    74588.000       0.91488868E-02
  23394.673       0.67201369       0.66187083      -0.17791513       0.66017202       0.37011099E-03  -0.10529121E-03    74397.000       0.11690579E-01
  23398.315       0.67268246       0.66166534      -0.17776059       0.65990046       0.13762878E-03  -0.46340048E-04    74339.000       0.12698246E-01
  23401.988       0.67302041       0.66145674      -0.17760476       0.65963420       0.31142810E-04  -0.53862981E-04    74272.000       0.13328194E-01
  23405.690       0.67291216       0.66124595      -0.17744765       0.65937342      -0.25963279E-03  -0.60416101E-04    74262.000       0.13446377E-01
  23409.424       0.67108977       0.66103393      -0.17728925       0.65911832      -0.41811554E-03   0.11345542E-04    74207.000       0.11590279E-01
  23413.216       0.66976543       0.66082006      -0.17712833       0.65886718      -0.17424658E-03   0.21163082E-04    74269.000       0.10310364E-01
  23417.040       0.66976271       0.66060690      -0.17696611       0.65862221      -0.25693857E-03  -0.90942664E-04    74218.000       0.10552920E-01
  23420.893       0.66779296       0.66039483      -0.17680260       0.65838362      -0.87239704E-03  -0.15375692E-03    74148.000       0.85270256E-02
  23424.777       0.66301232       0.66018417      -0.17663780       0.65815160      -0.14466712E-02  -0.88946454E-04    74068.000       0.32597108E-02
  23428.692       0.65651072       0.65997523      -0.17647170       0.65792635      -0.15660691E-02   0.87884509E-05    74124.000      -0.39931636E-02
  23432.666       0.65065754       0.65976683      -0.17630307       0.65770648      -0.13773388E-02   0.71292994E-04    73839.000      -0.10499289E-01
  23436.671       0.64552039       0.65956089      -0.17613314       0.65749391      -0.99719448E-03   0.90775629E-04    73638.000      -0.16182963E-01
  23440.707       0.64263949       0.65935779      -0.17596191       0.65728884      -0.64744734E-03   0.90620148E-04    73603.000      -0.19269374E-01
  23444.803       0.64025590       0.65915647      -0.17578814       0.65709010      -0.26034846E-03   0.13330985E-03    73534.000      -0.21784639E-01
  23448.899       0.64050659       0.65896021      -0.17561430       0.65690073       0.44469229E-03   0.16962824E-03    73505.000      -0.21269499E-01
  23453.056       0.64392636       0.65876662      -0.17543793       0.65671824       0.11397495E-02   0.10352362E-03    73515.000      -0.17104768E-01
  23457.244       0.65001744       0.65857755      -0.17526024       0.65654424       0.13085648E-02   0.23749095E-04    73355.000      -0.98663084E-02
  23461.492       0.65496485       0.65839218      -0.17508001       0.65637782       0.13400866E-02  -0.89582494E-05    73303.000      -0.39503114E-02
  23465.741       0.66140445       0.65821353      -0.17489971       0.65622150       0.12324446E-02  -0.41774027E-04    73267.000       0.36778374E-02
  23470.051       0.66551327       0.65803961      -0.17471686       0.65607334       0.98254524E-03  -0.23727797E-04    73271.000       0.86140777E-02
  23474.391       0.66990352       0.65787218      -0.17453269       0.65593468       0.10271980E-02  -0.29046762E-04    73142.000       0.13867224E-01
  23478.763       0.67446215       0.65771175      -0.17434721       0.65580575       0.72949160E-03  -0.86673234E-04    72956.000       0.19306381E-01
  23483.165       0.67630399       0.65755885      -0.17416042       0.65568678       0.26673743E-03  -0.10837585E-03    73002.000       0.21605498E-01
  23487.628       0.67682685       0.65741309      -0.17397106       0.65557730      -0.23128741E-03  -0.13988429E-03    72808.000       0.22376136E-01
  23492.122       0.67423241       0.65727611      -0.17378039       0.65547839      -0.98616837E-03  -0.15591259E-03    72690.000       0.19543700E-01
  23496.647       0.66793268       0.65714847      -0.17358839       0.65539027      -0.16374506E-02  -0.79211106E-04    72606.000       0.12429782E-01
  23501.203       0.65936243       0.65703080      -0.17339508       0.65531320      -0.17054987E-02   0.38584572E-04    72493.000       0.26874113E-02
  23505.820       0.65228824       0.65692307      -0.17319919       0.65524701      -0.12835166E-02   0.10477698E-03    72533.000      -0.53420720E-02
  23510.439       0.64750870       0.65682730      -0.17300322       0.65519279      -0.73784665E-03   0.10420956E-03    72426.000      -0.10740534E-01
  23515.118       0.64542784       0.65674293      -0.17280468       0.65515011      -0.31459069E-03   0.57163854E-04    72346.000      -0.13041672E-01
  23519.828       0.64455473       0.65667130      -0.17260481       0.65511958      -0.20108492E-03   0.44896951E-05    72260.000      -0.13965454E-01
  23524.600       0.64352116       0.65661281      -0.17240236       0.65510139      -0.27201940E-03   0.28710866E-05    72094.000      -0.15089336E-01
  23529.373       0.64195838       0.65656892      -0.17219983       0.65509602      -0.17368112E-03   0.46654416E-04    71780.000      -0.16839990E-01
  23534.207       0.64185249       0.65653983      -0.17199472       0.65510364       0.17621850E-03   0.85698558E-04    71818.000      -0.16928509E-01
  23539.073       0.64366770       0.65652666      -0.17178826       0.65512459       0.65759661E-03   0.89683994E-04    71682.000      -0.14821132E-01
  23543.971       0.64827262       0.65653020      -0.17158047       0.65515913       0.10518051E-02   0.48117542E-04    71661.000      -0.95176149E-02
  23548.899       0.65400286       0.65655127      -0.17137135       0.65520752       0.11304053E-02  -0.32159274E-05    71492.000      -0.29372776E-02
  23553.889       0.65948492       0.65659103      -0.17115962       0.65527044       0.10199069E-02  -0.56047210E-05    71330.000       0.33354789E-02
  23558.881       0.66418366       0.65664986      -0.17094781       0.65534740       0.10744586E-02   0.59442574E-06    71392.000       0.86833962E-02
  23563.935       0.67027833       0.65672936      -0.17073340       0.65543959       0.10258782E-02  -0.50395660E-04    71199.000       0.15616432E-01
  23569.020       0.67458445       0.65682994      -0.17051764       0.65554687       0.56352570E-03  -0.10734845E-03    70986.000       0.20463700E-01
  23574.137       0.67602740       0.65695143      -0.17030053       0.65566950      -0.69287467E-04  -0.10570547E-03    70886.000       0.21986813E-01
  23579.315       0.67387112       0.65709428      -0.17008082       0.65580861      -0.52473110E-03  -0.10330483E-03    70955.000       0.19336850E-01
  23584.496       0.67059178       0.65725644      -0.16986101       0.65596287      -0.11394098E-02  -0.90898240E-04    70797.000       0.15370199E-01
  23589.738       0.66199540       0.65743929      -0.16963859       0.65613435      -0.14721362E-02   0.93297830E-05    70697.000       0.52513310E-02
  23595.012       0.65511048       0.65764146      -0.16941481       0.65632247      -0.10412958E-02   0.93955665E-04    70597.000      -0.29171882E-02
  23600.318       0.65097829       0.65786243      -0.16918967       0.65652753      -0.47806740E-03   0.97426236E-04    70396.000      -0.79346097E-02
  23605.686       0.65000762       0.65810303      -0.16896192       0.65675110      -0.13749827E-05   0.75637667E-04    70389.000      -0.93306942E-02
  23611.056       0.65096352       0.65835999      -0.16873406       0.65699100       0.33413819E-03   0.33057688E-04    70278.000      -0.85251099E-02
  23616.488       0.65361712       0.65863555      -0.16850358       0.65725016       0.35572705E-03  -0.27531652E-04    70111.000      -0.57842114E-02
  23621.952       0.65483968       0.65892768      -0.16827173       0.65752762       0.34141194E-04  -0.67097175E-04    70114.000      -0.47117883E-02
  23627.449       0.65399133       0.65923567      -0.16803851       0.65782367      -0.37971904E-03  -0.36792052E-04    69968.000      -0.60445836E-02
  23632.978       0.65065310       0.65955883      -0.16780392       0.65813861      -0.37150847E-03   0.45210150E-04    69938.000      -0.10264666E-01
  23638.539       0.64987126       0.65989638      -0.16756796       0.65847275       0.12166649E-03   0.78767808E-04    69778.000      -0.11554872E-01
  23644.163       0.65201389       0.66024946      -0.16732936       0.65882831       0.50947717E-03   0.57473774E-04    69634.000      -0.94922466E-02
  23649.789       0.65560259       0.66061349      -0.16709065       0.65920185       0.76821368E-03   0.26627528E-04    69449.000      -0.57755226E-02
  23655.477       0.66070576       0.66099147      -0.16684930       0.65959764       0.81075140E-03  -0.23249108E-04    69268.000      -0.32931022E-03
  23661.198       0.66485262       0.66138060      -0.16660656       0.66001405       0.50295996E-03  -0.22208680E-04    69167.000       0.40018145E-02
  23666.981       0.66649189       0.66178203      -0.16636118       0.66045373       0.55525919E-03   0.28184663E-04    69039.000       0.54285486E-02
  23672.767       0.67127664       0.66219064      -0.16611568       0.66091246       0.82903988E-03   0.67035462E-06    69014.000       0.10472448E-01
  23678.586       0.67611285       0.66260747      -0.16586879       0.66139278       0.56303862E-03  -0.70566785E-04    69091.000       0.15566197E-01
  23684.467       0.67786431       0.66303364      -0.16561924       0.66189763       0.33929776E-05  -0.10062711E-03    68895.000       0.17093719E-01
  23690.382       0.67615287       0.66346592      -0.16536830       0.66242492      -0.62392058E-03  -0.93436982E-04    68730.000       0.14622877E-01
  23696.329       0.67046380       0.66390318      -0.16511597       0.66297500      -0.11048911E-02  -0.49838543E-04    68606.000       0.75617223E-02
  23702.309       0.66297477       0.66434423      -0.16486224       0.66354818      -0.12183479E-02   0.29648527E-04    68490.000      -0.15784234E-02
  23708.322       0.65585227       0.66478784      -0.16460711       0.66414481      -0.74931898E-03   0.10979708E-03    68449.000      -0.10299064E-01
  23714.368       0.65393884       0.66523275      -0.16435059       0.66476523       0.10567969E-03   0.93372801E-04    68397.000      -0.13017266E-01
  23720.477       0.65713679       0.66567983      -0.16409139       0.66541301       0.38561434E-03   0.57090132E-05    67991.000      -0.98466385E-02
  23726.619       0.65866300       0.66612552      -0.16383078       0.66608547       0.17562082E-03  -0.21016434E-04    67948.000      -0.86012344E-02
  23732.764       0.65929470       0.66656625      -0.16357004       0.66677952       0.12737869E-03   0.29472006E-05    67931.000      -0.83811303E-02
  23738.972       0.66023660       0.66700488      -0.16330662       0.66750230       0.21202965E-03   0.10777200E-04    67846.000      -0.78010719E-02
  23745.214       0.66193451       0.66743775      -0.16304178       0.66825081       0.26155677E-03   0.37123170E-05    67529.000      -0.63429963E-02
  23751.519       0.66351830       0.66786532      -0.16277426       0.66902918       0.25860742E-03   0.41513809E-05    67471.000      -0.50103313E-02
  23757.828       0.66519646       0.66828190      -0.16250660       0.66983035       0.31392034E-03   0.20025389E-04    67384.000      -0.35562571E-02
  23764.169       0.66748950       0.66868925      -0.16223751       0.67065835       0.51193500E-03   0.18108609E-04    67219.000      -0.13828301E-02
  23770.575       0.67172225       0.66909496      -0.16196573       0.67151761       0.54475640E-03  -0.14576878E-04    67279.000       0.30282026E-02
  23777.014       0.67448658       0.66950473      -0.16169253       0.67240465       0.32470332E-03  -0.23055478E-04    66947.000       0.57420379E-02
  23783.486       0.67591470       0.66992651      -0.16141790       0.67331983       0.24707282E-03  -0.15627220E-04    66909.000       0.69019338E-02
  23789.993       0.67769332       0.67036847      -0.16114184       0.67426353       0.12187920E-03  -0.22221436E-04    66650.000       0.84425609E-02
  23796.533       0.67750477       0.67083902      -0.16086435       0.67523613      -0.42834257E-04  -0.77850718E-05    66665.000       0.76828914E-02
  23803.107       0.67713160       0.67134684      -0.16058543       0.67623801       0.19787554E-04   0.71612455E-05    66648.000       0.66674586E-02
  23809.714       0.67776560       0.67190089      -0.16030507       0.67726955       0.51560769E-04  -0.12393974E-04    66385.000       0.67596161E-02
  23816.386       0.67781629       0.67251325      -0.16002199       0.67833602      -0.14479538E-03  -0.28211267E-04    66412.000       0.61122349E-02
  23823.061       0.67583300       0.67318790      -0.15973875       0.67942816      -0.32497783E-03  -0.80100760E-05    66247.000       0.30487177E-02
  23829.801       0.67345669       0.67394077      -0.15945279       0.68055624      -0.25225111E-03   0.26997149E-04    65927.000      -0.55795149E-03
  23836.575       0.67242424       0.67477910      -0.15916539       0.68171579       0.39844357E-04   0.27693589E-04    65953.000      -0.27141961E-02
  23843.382       0.67399784       0.67571332      -0.15887653       0.68290719       0.12387159E-03  -0.26627160E-06    65843.000      -0.19772557E-02
  23850.224       0.67411507       0.67675414      -0.15858623       0.68413085       0.36209776E-04  -0.18268755E-05    65680.000      -0.30417717E-02
  23857.101       0.67449457       0.67791257      -0.15829447       0.68538718       0.98809929E-04   0.10583834E-04    65595.000      -0.39395597E-02
  23864.011       0.67547735       0.67919991      -0.15800125       0.68667658       0.18212762E-03   0.12434351E-04    65463.000      -0.42905922E-02
  23870.956       0.67701804       0.68062776      -0.15770658       0.68799947       0.27109421E-03   0.15684847E-04    65314.000      -0.41605273E-02
  23877.936       0.67925214       0.68220802      -0.15741045       0.68935625       0.40052782E-03   0.21736506E-04    65180.000      -0.34069204E-02
  23884.980       0.68263486       0.68396082      -0.15711157       0.69075344       0.57591697E-03   0.11988633E-04    65009.000      -0.15282946E-02
  23892.059       0.68738578       0.68589230      -0.15681122       0.69218561       0.56984245E-03  -0.83114155E-05    64901.000       0.17213747E-02
  23899.142       0.69070480       0.68800596      -0.15651069       0.69364685       0.45821320E-03  -0.14563062E-04    64612.000       0.31106653E-02
  23906.290       0.69390661       0.69033322      -0.15620741       0.69515014       0.36259566E-03  -0.18847292E-04    64547.000       0.41186541E-02
  23913.472       0.69590108       0.69287907      -0.15590264       0.69668969       0.18811661E-03  -0.18048695E-04    64361.000       0.34831488E-02
  23920.690       0.69661554       0.69565748      -0.15559641       0.69826595       0.10268868E-03   0.13921462E-05    64407.000       0.11042525E-02
  23927.942       0.69738698       0.69868280      -0.15528869       0.69987935       0.20826094E-03   0.21574620E-04    64290.000      -0.14935433E-02
  23935.230       0.69964361       0.70196967      -0.15497949       0.70153033       0.41637826E-03   0.22934558E-04    64089.000      -0.26810049E-02
  23942.552       0.70347012       0.70553313      -0.15466881       0.70321933       0.54332635E-03   0.83630557E-05    63779.000      -0.23778120E-02
  23949.909       0.70761944       0.70938855      -0.15435664       0.70494680       0.53914491E-03  -0.10389893E-04    63683.000      -0.20390586E-02
  23957.302       0.71142238       0.71355166      -0.15404298       0.70671319       0.39007781E-03  -0.12971645E-04    63614.000      -0.24541898E-02
  23964.760       0.71341233       0.71805769      -0.15372653       0.70852645       0.34650820E-03   0.12546202E-04    63406.000      -0.53541983E-02
  23972.223       0.71659263       0.72288620      -0.15340989       0.71037217       0.57727956E-03   0.33037357E-04    63264.000      -0.72539255E-02
  23979.751       0.72206664       0.72809377      -0.15309045       0.71226595       0.84178906E-03   0.51619578E-04    63076.000      -0.69468200E-02
  23987.285       0.72927181       0.73365533      -0.15277080       0.71419285       0.13547835E-02   0.59994296E-04    62937.000      -0.50524040E-02
  23994.884       0.74256858       0.73963384      -0.15244836       0.71616900       0.17496827E-02   0.51963646E-04    62754.000       0.33825613E-02
