# XDI/1.0 Hephaestus/0.9.26
# Element.edge:                  K
# Element.symbol:                Zn
# Column.1:                      energy eV
# Column.2:                      xmu
# Column.3:                      bkg
# Column.4:                      pre_edge
# Column.5:                      post_edge
# Column.6:                      der
# Column.7:                      sec
# Column.8:                      i0
# Column.9:                      chi(e)
# Athena.e0:                     9660.00235
# Athena.eshift:                 0
# Athena.rbkg:                   1
# Athena.importance:             1
# Athena.standard:               None
# Athena.bkg_kweight:            2
# Athena.edge_step:              2.5930523
# Athena.fixed_step:             no
# Athena.pre_edge_range:         -150.000 -30.000
# Athena.pre_edge_line:          -0.239818 - 0.000219118 * E
# Athena.normalization_range:    100.000 1000.000
# Athena.post_edge_polynomial:   34.164676 - 0.00587423 * E + 2.44513344e-007 * E^2 + 0 * E^3
# Athena.spline_range_energy:    0.000 1024.858
# Athena.clamps:                 0 24
# Athena.spline_range_k:         0.000 16.401
# Athena.kweight:                1
# Athena.window:                 hanning
# Athena.phase_correction:       no
# Athena.k_range:                3.000 16.401
# Athena.dk:                     1
# Athena.r_range:                1 3
# Athena.dr:                     0.0
# Athena.window:                 hanning
# Athena.plot_multiplier:        1
# Athena.y_offset:               0
# ///
#------------------------
#   e         xmu        bkg        pre_edge        post_edge        der        sec        i0        chie
  9458.9995       -2.3104547       -2.3104547       -2.3124539       0.47763295      -0.10555394E-03  -0.15753244E-04    5797.0000        0.0000000
  9469.0013       -2.3115104       -2.3115104       -2.3146455       0.46516983      -0.26311599E-03  -0.10627841E-04    5789.0000        0.0000000
  9479.0012       -2.3157175       -2.3157175       -2.3168367       0.45275808      -0.31812968E-03   0.41061491E-06    5772.0000        0.0000000
  9488.9991       -2.3178723       -2.3178723       -2.3190274       0.44039777      -0.25490462E-03   0.27075827E-05    5758.0000        0.0000000
  9498.9995       -2.3208151       -2.3208151       -2.3212186       0.42808318      -0.26398271E-03   0.56575982E-05    5740.0000        0.0000000
  9508.9977       -2.3231516       -2.3231516       -2.3234094       0.41582020      -0.14176040E-03   0.82652545E-05    5722.0000        0.0000000
  9518.9984       -2.3236502       -2.3236502       -2.3256007       0.40360310      -0.98686880E-04  -0.49246081E-05    5712.0000        0.0000000
  9529.0015       -2.3251257       -2.3251257       -2.3277926       0.39143200      -0.24027098E-03  -0.16052450E-04    5707.0000        0.0000000
  9539.0021       -2.3284565       -2.3284565       -2.3299839       0.37931275      -0.41979576E-03  -0.48871177E-05    5666.0000        0.0000000
  9549.0003       -2.3335211       -2.3335211       -2.3321747       0.36724543      -0.33800752E-03   0.82762011E-05    5678.0000        0.0000000
  9559.0006       -2.3352161       -2.3352161       -2.3343660       0.35522435      -0.25428407E-03   0.19217711E-05    5689.0000        0.0000000
  9568.9983       -2.3386063       -2.3386063       -2.3365566       0.34325535      -0.29957583E-03  -0.33246965E-06    5671.0000        0.0000000
  9578.9981       -2.3412069       -2.3412069       -2.3387478       0.33133275      -0.26093263E-03   0.34204695E-05    5653.0000        0.0000000
  9588.9999       -2.3438254       -2.3438254       -2.3409393       0.31945667      -0.23116107E-03   0.43357224E-05    5641.0000        0.0000000
  9598.9988       -2.3458303       -2.3458303       -2.3431303       0.30763289      -0.17421506E-03   0.83185119E-05    5632.0000        0.0000000
  9608.9996       -2.3473096       -2.3473096       -2.3453216       0.29585578      -0.64792910E-04   0.11110709E-04    5610.0000        0.0000000
  9619.0023       -2.3471264       -2.3471264       -2.3475134       0.28412545       0.48037573E-04   0.93149539E-05    5537.0000        0.0000000
  9629.0019       -2.3463488       -2.3463488       -2.3497045       0.27244763       0.12152675E-03   0.29727494E-04    5575.0000        0.0000000
  9630.0020       -2.3457896       -2.3457896       -2.3499236       0.27128231       0.37503169E-03   0.15262243E-03    5574.0000        0.0000000
  9631.0024       -2.3455985       -2.3455985       -2.3501428       0.27011724       0.42684946E-03   0.32819571E-04    5572.0000        0.0000000
  9631.9981       -2.3449376       -2.3449376       -2.3503610       0.26895806       0.44054185E-03   0.32296875E-04    5573.0000        0.0000000
  9632.9989       -2.3447190       -2.3447190       -2.3505803       0.26779348       0.49132985E-03   0.35239299E-04    5570.0000        0.0000000
  9633.9999       -2.3439541       -2.3439541       -2.3507996       0.26662914       0.51108282E-03   0.90680031E-04    5571.0000        0.0000000
  9635.0011       -2.3436957       -2.3436957       -2.3510190       0.26546503       0.67288941E-03   0.24355267E-03    5571.0000        0.0000000
  9635.9976       -2.3426098       -2.3426098       -2.3512374       0.26430683       0.99764261E-03   0.31538048E-04    5571.0000        0.0000000
  9636.9992       -2.3417022       -2.3417022       -2.3514568       0.26314323       0.73590779E-03  -0.21233647E-04    5570.0000        0.0000000
  9638.0011       -2.3411354       -2.3411354       -2.3516764       0.26197986       0.95510184E-03   0.32036333E-03    5567.0000        0.0000000
  9638.9983       -2.3397929       -2.3397929       -2.3518949       0.26082238       0.13763237E-02   0.20419084E-03    5566.0000        0.0000000
  9640.0005       -2.3383835       -2.3383835       -2.3521145       0.25965950       0.13633712E-02   0.11462261E-03    5567.0000        0.0000000
  9640.9981       -2.3370664       -2.3370664       -2.3523331       0.25850252       0.16055529E-02   0.27775896E-03    5564.0000        0.0000000
  9642.0008       -2.3351720       -2.3351720       -2.3525528       0.25734014       0.19189669E-02   0.23689220E-03    5564.0000        0.0000000
  9642.9988       -2.3332271       -2.3332271       -2.3527715       0.25618364       0.20795055E-02   0.26274897E-03    5563.0000        0.0000000
  9644.0019       -2.3310106       -2.3310106       -2.3529913       0.25502174       0.24447644E-02   0.27373698E-03    5563.0000        0.0000000
  9645.0004       -2.3283338       -2.3283338       -2.3532100       0.25386573       0.26274037E-02   0.30614127E-03    5563.0000        0.0000000
  9645.9990       -2.3257634       -2.3257634       -2.3534289       0.25270997       0.30561591E-02   0.74788222E-03    5561.0000        0.0000000
  9646.9979       -2.3222290       -2.3222290       -2.3536477       0.25155444       0.41213209E-02   0.86750360E-03    5560.0000        0.0000000
  9648.0019       -2.3175091       -2.3175091       -2.3538677       0.25039353       0.47936127E-02   0.81281755E-03    5560.0000        0.0000000
  9649.0012       -2.3126263       -2.3126263       -2.3540867       0.24923850       0.57495895E-02   0.13204856E-02    5559.0000        0.0000000
  9650.0006       -2.3060169       -2.3060169       -2.3543057       0.24808372       0.74329860E-02   0.17816489E-02    5556.0000        0.0000000
  9651.0004       -2.2977662       -2.2977662       -2.3545247       0.24692918       0.93114798E-02   0.23199752E-02    5554.0000        0.0000000
  9652.0003       -2.2873974       -2.2873974       -2.3547438       0.24577488       0.12072078E-01   0.36561542E-02    5553.0000        0.0000000
  9653.0004       -2.2736214       -2.2736214       -2.3549630       0.24462084       0.16623971E-01   0.57978627E-02    5552.0000        0.0000000
  9654.0007       -2.2541417       -2.2541417       -2.3551822       0.24346704       0.23670529E-01   0.10209737E-01    5551.0000        0.0000000
  9655.0013       -2.2262590       -2.2262590       -2.3554014       0.24231347       0.37052634E-01   0.21504817E-01    5548.0000        0.0000000
  9656.0021       -2.1799875       -2.1799875       -2.3556207       0.24116017       0.66708550E-01   0.53128307E-01    5546.0000        0.0000000
  9656.9982       -2.0930521       -2.0930521       -2.3558390       0.24001273       0.14314189       0.13510364        5546.0000        0.0000000
  9657.9994       -1.8940930       -1.8940930       -2.3560583       0.23885991       0.33654834       0.20224083        5542.0000        0.0000000
  9659.0007       -1.4190871       -1.4190871       -2.3562778       0.23770735       0.54814533       0.89465212E-01    5542.0000        0.0000000
  9660.0024      -0.79615794       0.74917676       -2.3564972       0.23655503       0.51574716      -0.10855599        5539.0000      -0.59595200
  9660.9993      -0.38834577       0.74668506       -2.3567157       0.23540857       0.33119184      -0.16079543        5538.0000      -0.43771999
  9662.0013      -0.13411871       0.61315648       -2.3569352       0.23425674       0.19432353      -0.11194539        5532.0000      -0.28818362
  9662.9987       0.18081548E-03   0.49844183       -2.3571538       0.23311078       0.10737046      -0.45126272E-01    5531.0000      -0.19215232
  9664.0011       0.80600731E-01   0.40011501       -2.3573734       0.23195945       0.10408001       0.15982812E-01    5527.0000      -0.12321937
  9664.9989       0.20836374       0.31784093       -2.3575921       0.23081398       0.13933960       0.16666827E-01    5524.0000      -0.42219431E-01
  9666.0017       0.35936911       0.24950864       -2.3578118       0.22966315       0.13742434      -0.15303254E-01    5522.0000       0.42367237E-01
  9666.9999       0.48335808       0.19448688       -2.3580305       0.22851818       0.10871687      -0.33931595E-01    5518.0000       0.11140200
  9667.9983       0.57643212       0.15111458       -2.3582493       0.22737345       0.69676852E-01  -0.56603176E-01    5517.0000       0.16402197
  9669.0018       0.62284417       0.11795781       -2.3584692       0.22622337      -0.45970271E-02  -0.89592782E-01    5492.0000       0.19470736
  9670.0007       0.56722740       0.94037117E-01   -2.3586880       0.22507914      -0.10971657      -0.82311498E-01    5440.0000       0.18248390
  9670.9997       0.40364693       0.77867703E-01   -2.3589070       0.22393515      -0.16904305      -0.15586799E-01    5495.0000       0.12563542
  9671.9989       0.22943374       0.68149009E-01   -2.3591259       0.22279142      -0.14086320       0.45203136E-01    5502.0000       0.62198796E-01
  9672.9984       0.12210506       0.63578825E-01   -2.3593449       0.22164793      -0.78695999E-01   0.52788651E-01    5507.0000       0.22570401E-01
  9673.9980       0.72111782E-01   0.62853294E-01   -2.3595639       0.22050469      -0.35332882E-01   0.34242189E-01    5505.0000       0.35704980E-02
  9674.9979       0.51455898E-01   0.64666916E-01   -2.3597830       0.21936170      -0.10227715E-01   0.18819847E-01    5503.0000      -0.50947747E-02
  9675.9980       0.51656865E-01   0.67712537E-01   -2.3600022       0.21821896       0.23058720E-02   0.28062750E-02    5502.0000      -0.61918045E-02
  9676.9983       0.56068495E-01   0.70879033E-01   -2.3602213       0.21707647      -0.46141263E-02  -0.12340832E-01    5502.0000      -0.57116233E-02
  9677.9988       0.42424967E-01   0.73927503E-01   -2.3604406       0.21593423      -0.22385541E-01  -0.14848425E-01    5489.0000      -0.12148824E-01
  9678.9995       0.11270327E-01   0.76860015E-01   -2.3606598       0.21479224      -0.34328943E-01  -0.66957862E-02    5443.0000      -0.25294395E-01
  9680.0004      -0.26288874E-01   0.79678649E-01   -2.3608792       0.21365049      -0.35788028E-01   0.44746872E-02    5481.0000      -0.40865941E-01
  9681.0015      -0.60379093E-01   0.82385485E-01   -2.3610985       0.21250900      -0.25370395E-01   0.12070543E-01    5511.0000      -0.55056575E-01
  9681.9980      -0.76967760E-01   0.84970140E-01   -2.3613169       0.21137336      -0.11676393E-01   0.11253556E-01    5512.0000      -0.62450688E-01
  9682.9995      -0.83708294E-01   0.87460164E-01   -2.3615363       0.21023236      -0.28860147E-02   0.81644793E-02    5509.0000      -0.66010415E-01
  9684.0013      -0.82749371E-01   0.89844666E-01   -2.3617558       0.20909161       0.46796714E-02   0.77114355E-02    5506.0000      -0.66560184E-01
  9684.9983      -0.74354426E-01   0.92114762E-01   -2.3619743       0.20795671       0.12527834E-01   0.79887156E-02    5506.0000      -0.64198161E-01
  9686.0005      -0.57703225E-01   0.94294921E-01   -2.3621939       0.20681647       0.20651031E-01   0.72557982E-02    5505.0000      -0.58617462E-01
  9686.9980      -0.33059385E-01   0.96365857E-01   -2.3624125       0.20568207       0.27036963E-01   0.64441453E-02    5504.0000      -0.49912315E-01
  9688.0006      -0.36271349E-02   0.98350049E-01   -2.3626322       0.20454233       0.33539837E-01   0.23921300E-02    5504.0000      -0.39327083E-01
  9690.5179       0.84996146E-01   0.10291590       -2.3631837       0.20168292       0.35456926E-01  -0.61376442E-03    10996.000      -0.69106789E-02
  9692.0672       0.14056306       0.10544183       -2.3635232       0.19992450       0.31043884E-01  -0.50132860E-02    10989.000       0.13544359E-01
  9693.6565       0.18243079       0.10781777       -2.3638715       0.19812206       0.19722176E-01  -0.76636026E-02    10986.000       0.28774208E-01
  9695.2856       0.20403692       0.11003632       -2.3642284       0.19627561       0.63793460E-02  -0.73239179E-02    10977.000       0.36250944E-01
  9696.9498       0.20344015       0.11208525       -2.3645931       0.19439082      -0.43979754E-02  -0.53844679E-02    10968.000       0.35230640E-01
  9698.6540       0.18922300       0.11396609       -2.3649665       0.19246214      -0.11757426E-01  -0.38343850E-02    10963.000       0.29022519E-01
  9700.3933       0.16295404       0.11566986       -2.3653476       0.19049518      -0.17601489E-01  -0.16012257E-02    10953.000       0.18234950E-01
  9702.1677       0.12737665       0.11719503       -2.3657364       0.18849002      -0.17383653E-01   0.17759315E-02    10945.000       0.39264981E-02
  9703.9822       0.10056498       0.11854460       -2.3661340       0.18644111      -0.11227759E-01   0.33668233E-02    10933.000      -0.69337671E-02
  9705.8369       0.86179527E-01   0.11971775       -2.3665404       0.18434853      -0.50300378E-02   0.32856297E-02    10924.000      -0.12933879E-01
  9707.7219       0.81754043E-01   0.12071043       -2.3669535       0.18222344       0.10595759E-02   0.32545320E-02    10917.000      -0.15023372E-01
  9709.6472       0.90216829E-01   0.12153139       -2.3673753       0.18005477       0.73707055E-02   0.21759074E-02    10908.000      -0.12076333E-01
  9711.6128       0.11043220       0.12218424       -2.3678060       0.17784259       0.95256616E-02  -0.45569351E-03    10894.000      -0.45321226E-02
  9713.6137       0.12800065       0.12267327       -2.3682445       0.17559251       0.55631836E-02  -0.24329062E-02    10870.000       0.20544836E-02
  9715.6501       0.13289289       0.12300675       -2.3686907       0.17330457      -0.29690540E-03  -0.20431659E-02    10736.000       0.38125493E-02
  9717.7270       0.12677941       0.12319493       -2.3691457       0.17097331      -0.28408684E-02  -0.37610521E-03    10733.000       0.13823385E-02
  9719.8394       0.12099184       0.12324866       -2.3696086       0.16860430      -0.18724966E-02   0.62180419E-03    10925.000      -0.87033515E-03
  9721.9923       0.11879263       0.12318142       -2.3700803       0.16619208      -0.18868081E-03   0.84797406E-03    10901.000      -0.16925195E-02
  9724.1759       0.12017362       0.12300925       -2.3705588       0.16374781       0.18047598E-02   0.95623580E-03    10889.000      -0.10935491E-02
  9726.4051       0.12675667       0.12274470       -2.3710473       0.16125489       0.40309965E-02   0.10701655E-02    10886.000       0.15472001E-02
  9728.6651       0.13826949       0.12239038       -2.3715425       0.15873004       0.66089255E-02   0.85131830E-03    10880.000       0.61237151E-02
  9730.9658       0.15689800       0.12194287       -2.3720466       0.15616224       0.79136039E-02  -0.12067362E-03    10874.000       0.13480302E-01
  9733.3024       0.17496717       0.12140115       -2.3725586       0.15355707       0.60493269E-02  -0.12468385E-02    10865.000       0.20657516E-01
  9735.6748       0.18538446       0.12076365       -2.3730784       0.15091462       0.20422038E-02  -0.19201552E-02    10856.000       0.24920752E-01
  9738.0882       0.18474079       0.12002736       -2.3736072       0.14822944      -0.31401902E-02  -0.21575764E-02    10843.000       0.24956467E-01
  9740.5376       0.17011453       0.11919231       -2.3741439       0.14550709      -0.84495292E-02  -0.17153052E-02    10829.000       0.19637947E-01
  9743.0230       0.14304397       0.11825744       -2.3746885       0.14274768      -0.11604895E-01  -0.51718373E-03    10819.000       0.95588214E-02
  9745.5445       0.11200917       0.11722191       -2.3752411       0.13995126      -0.11039053E-01   0.78056973E-03    10815.000      -0.20102708E-02
  9748.1072       0.86918883E-01   0.11608274       -2.3758026       0.13711240      -0.76362993E-02   0.12063238E-02    10811.000      -0.11246923E-01
  9750.7061       0.72593569E-01   0.11484147       -2.3763721       0.13423667      -0.48124798E-02   0.66018042E-03    10811.000      -0.16292729E-01
  9753.3414       0.61729738E-01   0.11349786       -2.3769495       0.13132417      -0.41808292E-02   0.13883854E-03    10808.000      -0.19964165E-01
  9756.0129       0.50406912E-01   0.11205194       -2.3775349       0.12837497      -0.40756970E-02   0.42280577E-03    10802.000      -0.23773151E-01
  9758.7259       0.39784148E-01   0.11050100       -2.3781293       0.12538364      -0.19042315E-02   0.12069106E-02    10794.000      -0.27271665E-01
  9761.4703       0.40014797E-01   0.10885127       -2.3787307       0.12236126       0.25108728E-02   0.14312797E-02    10784.000      -0.26546502E-01
  9764.2563       0.53670254E-01   0.10709749       -2.3793411       0.11929691       0.60113036E-02   0.78964729E-03    10774.000      -0.20603995E-01
  9767.0788       0.73729253E-01   0.10524366       -2.3799596       0.11619618       0.69396176E-02   0.47538548E-04    10763.000      -0.12153401E-01
  9769.9380       0.93099495E-01   0.10329109       -2.3805861       0.11305916       0.62814062E-02  -0.16595532E-03    10754.000      -0.39303468E-02
  9772.8340       0.10987969       0.10124141       -2.3812207       0.10988591       0.59845198E-02  -0.10420401E-03    10744.000       0.33313178E-02
  9775.7717       0.12801121       0.99092831E-01   -2.3818644       0.10667106       0.56735144E-02  -0.44701163E-03    10736.000       0.11152254E-01
  9778.7413       0.14339490       0.96854935E-01   -2.3825151       0.10342564       0.33438835E-02  -0.10639698E-02    10727.000       0.17947946E-01
  9781.7478       0.14799452       0.94526702E-01   -2.3831738       0.10014427      -0.68485437E-03  -0.11541951E-02    10715.000       0.20619647E-01
  9784.7963       0.13924810       0.92107033E-01   -2.3838418       0.96821570E-01  -0.36447679E-02  -0.51975765E-03    10701.000       0.18179761E-01
  9787.8818       0.12563726       0.89603055E-01   -2.3845179       0.93463095E-01  -0.38730842E-02   0.14941617E-03    10689.000       0.13896445E-01
  9790.9995       0.11522239       0.87022643E-01   -2.3852011       0.90074399E-01  -0.27179020E-02   0.24331543E-03    10677.000       0.10875119E-01
  9794.1594       0.10857542       0.84361544E-01   -2.3858934       0.86644663E-01  -0.23456521E-02  -0.29642857E-04    10662.000       0.93379804E-02
  9797.3566       0.10031092       0.81628332E-01   -2.3865940       0.83179445E-01  -0.29063437E-02  -0.19677656E-03    10645.000       0.72048637E-02
  9800.5861       0.89897332E-01   0.78832249E-01   -2.3873016       0.79684271E-01  -0.36102681E-02  -0.12949246E-03    10631.000       0.42672041E-02
  9803.8580       0.76839051E-01   0.75969884E-01   -2.3880186       0.76148367E-01  -0.37482286E-02  -0.63872819E-04    10492.000       0.33519045E-03
  9807.1674       0.65228891E-01   0.73050544E-01   -2.3887437       0.72577264E-01  -0.40306381E-02  -0.16825622E-03    10626.000      -0.30163885E-02
  9810.5094       0.50029745E-01   0.70079744E-01   -2.3894760       0.68976504E-01  -0.48673647E-02  -0.11753060E-03    10615.000      -0.77321998E-02
  9813.8940       0.32488124E-01   0.67048033E-01   -2.3902177       0.65335315E-01  -0.48212182E-02   0.29149869E-03    10605.000      -0.13327887E-01
  9817.3113       0.17236060E-01   0.63963988E-01   -2.3909664       0.61664664E-01  -0.28846051E-02   0.82690004E-03    10592.000      -0.18020434E-01
  9820.7715       0.12649367E-01   0.60818045E-01   -2.3917246       0.57953815E-01   0.86575372E-03   0.94576803E-03    10581.000      -0.18576053E-01
  9824.2645       0.23255749E-01   0.57618946E-01   -2.3924900       0.54213707E-01   0.36914334E-02   0.40092932E-03    10571.000      -0.13252026E-01
  9827.7954       0.38577590E-01   0.54361690E-01   -2.3932637       0.50439027E-01   0.36818371E-02  -0.25801451E-03    10570.000      -0.60870737E-02
  9831.3643       0.49396351E-01   0.51045858E-01   -2.3940457       0.46629878E-01   0.18595614E-02  -0.50258321E-03    10561.000      -0.63612552E-03
  9834.9714       0.51921839E-01   0.47671074E-01   -2.3948361       0.42786393E-01   0.75289976E-04  -0.30465846E-03    10554.000       0.16392901E-02
  9838.6166       0.49942377E-01   0.44236955E-01   -2.3956348       0.38908680E-01  -0.34991624E-03  -0.18321216E-04    10551.000       0.22002726E-02
  9842.2951       0.49359154E-01   0.40747960E-01   -2.3964408       0.35002225E-01  -0.58889295E-04   0.74519668E-04    10548.000       0.33208719E-02
  9846.0119       0.49506876E-01   0.37199008E-01   -2.3972553       0.31061775E-01   0.20117608E-03   0.76029450E-04    10538.000       0.47464787E-02
  9849.7722       0.50863374E-01   0.33584856E-01   -2.3980792       0.27082051E-01   0.50959279E-03   0.29039173E-04    10526.000       0.66633898E-02
  9853.5609       0.53353802E-01   0.29919909E-01   -2.3989094       0.23079305E-01   0.42039338E-03  -0.93943074E-04    10509.000       0.90371847E-02
  9857.3933       0.54067221E-01   0.26189189E-01   -2.3997491       0.19037543E-01  -0.20635395E-03  -0.16846668E-03    10488.000       0.10751049E-01
  9861.2593       0.51765213E-01   0.22402332E-01   -2.4005962       0.14967611E-01  -0.87652545E-03  -0.21519317E-03    10486.000       0.11323675E-01
  9865.1640       0.47255961E-01   0.18554177E-01   -2.4014518       0.10864283E-01  -0.18785662E-02  -0.29270415E-03    10486.000       0.11068725E-01
  9869.1077       0.37021473E-01   0.14644489E-01   -2.4023160       0.67276665E-02  -0.31737847E-02  -0.25623074E-03    10483.000       0.86295925E-02
  9873.0903       0.22099814E-01   0.10673095E-01   -2.4031886       0.25579122E-02  -0.39095101E-02  -0.12093662E-03    10477.000       0.44066671E-02
  9877.1068       0.57487942E-02   0.66449510E-02   -2.4040687      -0.16395317E-02  -0.41411724E-02   0.15153122E-04    10467.000      -0.34559919E-03
  9881.1625      -0.11328599E-01   0.25548546E-02   -2.4049574      -0.58698630E-02  -0.37871909E-02   0.17950093E-03    10445.000      -0.53540972E-02
  9885.2523      -0.25099580E-01  -0.15921102E-02   -2.4058535      -0.10127628E-01  -0.26790565E-02   0.28473730E-03    10426.000      -0.90655593E-02
  9889.3814      -0.33347444E-01  -0.58011779E-02   -2.4067583      -0.14418030E-01  -0.14469691E-02   0.28716233E-03    10410.000      -0.10623105E-01
  9893.5499      -0.37105980E-01  -0.10072414E-01   -2.4076717      -0.18740934E-01  -0.29629269E-03   0.23639705E-03    10396.000      -0.10425384E-01
  9897.7528      -0.35827831E-01  -0.14400537E-01   -2.4085926      -0.23090879E-01   0.53200752E-03   0.12597575E-03    10390.000      -0.82633483E-02
  9901.9901      -0.32615709E-01  -0.18785463E-01   -2.4095211      -0.27467744E-01   0.76697286E-03  -0.18733357E-04    10376.000      -0.53335775E-02
  9906.2723      -0.29293583E-01  -0.23237794E-01   -2.4104594      -0.31881995E-01   0.37240813E-03  -0.10606098E-03    10361.000      -0.23353902E-02
  9910.5840      -0.29415285E-01  -0.27741390E-01   -2.4114042      -0.36317595E-01  -0.14450038E-03  -0.10501076E-03    10351.000      -0.64553096E-03
  9914.9407      -0.30546169E-01  -0.32312238E-01   -2.4123588      -0.40790286E-01  -0.53786606E-03  -0.59036029E-04    10349.000       0.68107724E-03
  9919.3322      -0.34120677E-01  -0.36939384E-01   -2.4133211      -0.45289350E-01  -0.66096291E-03   0.56514389E-05    10343.000       0.10870226E-02
  9923.7587      -0.36374553E-01  -0.41622174E-01   -2.4142910      -0.49814645E-01  -0.48803156E-03   0.21866975E-04    10339.000       0.20237238E-02
  9928.2254      -0.38460801E-01  -0.46365161E-01   -2.4152697      -0.54371305E-01  -0.46649728E-03  -0.22716345E-04    10329.000       0.30482840E-02
  9932.7271      -0.40558292E-01  -0.51161871E-01   -2.4162561      -0.58953910E-01  -0.69176106E-03  -0.50503899E-04    10316.000       0.40892271E-02
  9937.2641      -0.44713442E-01  -0.56011227E-01   -2.4172502      -0.63562330E-01  -0.92298838E-03  -0.42736986E-04    10300.000       0.43569444E-02
  9941.8415      -0.48970786E-01  -0.60917615E-01   -2.4182532      -0.68201657E-01  -0.10812835E-02  -0.42514980E-04    10281.000       0.46072456E-02
  9946.4596      -0.54656341E-01  -0.65879864E-01   -2.4192651      -0.72871728E-01  -0.13139332E-02  -0.64211703E-04    10271.000       0.43283058E-02
  9951.1079      -0.61146164E-01  -0.70885542E-01   -2.4202837      -0.77561930E-01  -0.16762922E-02  -0.96672247E-04    10261.000       0.37559513E-02
  9955.7970      -0.70308653E-01  -0.75944426E-01   -2.4213111      -0.82282573E-01  -0.22166064E-02  -0.75034070E-04    10228.000       0.21734131E-02
  9960.5270      -0.82024690E-01  -0.81055109E-01   -2.4223476      -0.87033497E-01  -0.23830486E-02   0.14556996E-04    10236.000      -0.37391491E-03
  9965.2877      -0.92925285E-01  -0.86204806E-01   -2.4233907      -0.91804099E-01  -0.20784514E-02   0.91997160E-04    10228.000      -0.25917253E-02
  9970.0894      -0.10189951      -0.91403156E-01   -2.4244429      -0.96604660E-01  -0.15033423E-02   0.11081480E-03    10217.000      -0.40478749E-02
  9974.9271      -0.10741662      -0.96642821E-01   -2.4255029      -0.10142980      -0.10102621E-02   0.60889185E-04    10203.000      -0.41548710E-02
  9979.8061      -0.11171595      -0.10192768       -2.4265720      -0.10628457      -0.91169858E-03  -0.92937657E-05    10195.000      -0.37748049E-02
  9984.7161      -0.11634126      -0.10724454       -2.4276478      -0.11115841      -0.11012391E-02  -0.28063041E-05    10180.000      -0.35081143E-02
  9989.6676      -0.12257586      -0.11260275       -2.4287328      -0.11606154      -0.93937306E-03   0.56263278E-04    10176.000      -0.38460906E-02
  9994.6556      -0.12567814      -0.11799458       -2.4298257      -0.12098859      -0.54201133E-03   0.44482551E-04    10163.000      -0.29631354E-02
  9999.6800      -0.12800270      -0.12341789       -2.4309267      -0.12593941      -0.49399596E-03   0.76898175E-06    10157.000      -0.17681141E-02
  10004.741      -0.13066036      -0.12887042       -2.4320357      -0.13091384      -0.53425573E-03  -0.12093076E-04    10159.000      -0.69028207E-03
  10009.844      -0.13343294      -0.13435547       -2.4331538      -0.13591683      -0.61691156E-03  -0.98427088E-05    10158.000       0.35576834E-03
  10014.979      -0.13697611      -0.13985931       -2.4342789      -0.14093795      -0.63502233E-03  -0.28745194E-05    10143.000       0.11118953E-02
  10020.156      -0.13998096      -0.14539065       -2.4354133      -0.14598728      -0.64655211E-03  -0.98025261E-05    10123.000       0.20862254E-02
  10025.370      -0.14369426      -0.15094120       -2.4365557      -0.15105949      -0.73687773E-03  -0.23012122E-04    10108.000       0.27947535E-02
  10030.615      -0.14768846      -0.15650261       -2.4377052      -0.15614932      -0.88725131E-03  -0.31925731E-04    10091.000       0.33991393E-02
  10035.904      -0.15304066      -0.16208320       -2.4388639      -0.16126681      -0.10731869E-02  -0.30065022E-04    10044.000       0.34872167E-02
  10041.229      -0.15907931      -0.16767437       -2.4400309      -0.16640665      -0.12063627E-02  -0.44131634E-04    10062.000       0.33146497E-02
  10046.587      -0.16592898      -0.17326753       -2.4412049      -0.17156357      -0.15446725E-02  -0.47442629E-04    10056.000       0.28300813E-02
  10051.988      -0.17569802      -0.17887052       -2.4423883      -0.17674758      -0.17167851E-02   0.12020726E-04    10048.000       0.12234617E-02
  10057.421      -0.18452872      -0.18446902       -2.4435788      -0.18194831      -0.14144393E-02   0.49794121E-04    10032.000      -0.23020231E-04
  10062.898      -0.19112898      -0.19007054       -2.4447788      -0.18717572      -0.11735516E-02   0.29735076E-04    10023.000      -0.40818215E-03
  10068.407      -0.19742061      -0.19566219       -2.4459859      -0.19241949      -0.10877885E-02  -0.68580838E-05    10002.000      -0.67812773E-03
  10073.954      -0.20315564      -0.20124927       -2.4472014      -0.19768448      -0.12493751E-02   0.43156814E-05    9975.0000      -0.73518632E-03
  10079.539      -0.21132903      -0.20683178       -2.4484252      -0.20297052      -0.10397451E-02   0.40042547E-04    9553.0000      -0.17343453E-02
  10085.163      -0.21480992      -0.21240978       -2.4496574      -0.20827738      -0.80054699E-03   0.28090517E-05    9953.0000      -0.92560287E-03
  10090.824      -0.22036359      -0.21798330       -2.4508981      -0.21360486      -0.10080436E-02  -0.13992070E-04    9942.0000      -0.91795034E-03
  10096.520      -0.22625835      -0.22354724       -2.4521460      -0.21894777      -0.95945605E-03   0.18596680E-04    9937.0000      -0.10455297E-02
  10102.253      -0.23132914      -0.22910696       -2.4534024      -0.22431090      -0.79550361E-03   0.16924123E-04    9928.0000      -0.85697178E-03
  10108.026      -0.23541168      -0.23466262       -2.4546672      -0.22969405      -0.76472152E-03  -0.33413709E-05    9916.0000      -0.28887053E-03
  10113.837      -0.24018765      -0.24021435       -2.4559406      -0.23509700      -0.83420998E-03  -0.58942197E-05    9901.0000       0.10296260E-04
  10119.682      -0.24513565      -0.24575729       -2.4572214      -0.24051458      -0.83342755E-03   0.53969512E-05    9885.0000       0.23973311E-03
  10125.567      -0.24996317      -0.25129679       -2.4585107      -0.24595155      -0.77090758E-03   0.22952488E-06    9874.0000       0.51430581E-03
  10131.490      -0.25423828      -0.25683308       -2.4598086      -0.25140768      -0.83071739E-03  -0.16623129E-04    9866.0000       0.10006758E-02
  10137.448      -0.25983285      -0.26236147       -2.4611140      -0.25687782      -0.96840564E-03  -0.20807939E-04    9858.0000       0.97514836E-03
  10143.445      -0.26581499      -0.26788728       -2.4624281      -0.26236670      -0.10794640E-02  -0.12422587E-04    9836.0000       0.79916800E-03
  10149.476      -0.27281678      -0.27340593       -2.4637496      -0.26786916      -0.11178260E-02  -0.30636472E-05    9810.0000       0.22720310E-03
  10155.547      -0.27934302      -0.27892277       -2.4650799      -0.27338991      -0.11165406E-02   0.61303114E-05    9784.0000      -0.16206961E-03
  10161.652      -0.28641210      -0.28443331       -2.4664177      -0.27892382      -0.10431816E-02   0.18436448E-04    9652.0000      -0.76311012E-03
  10167.797      -0.29212278      -0.28994294       -2.4677642      -0.28447559      -0.89068024E-03   0.13123111E-04    9774.0000      -0.84064702E-03
  10173.983      -0.29739497      -0.29545208       -2.4691196      -0.29004495      -0.88136206E-03   0.29129509E-05    9759.0000      -0.74926652E-03
  10180.203      -0.30305681      -0.30095646       -2.4704826      -0.29562680      -0.85454266E-03   0.27687550E-05    9746.0000      -0.80999176E-03
  10186.458      -0.30805590      -0.30645666       -2.4718532      -0.30122093      -0.84682018E-03   0.81683648E-06    9729.0000      -0.61674022E-03
  10192.754      -0.31368529      -0.31195809       -2.4732327      -0.30683196      -0.84429051E-03  -0.52202941E-06    9708.0000      -0.66608926E-03
  10199.085      -0.31871655      -0.31745660       -2.4746199      -0.31245481      -0.85341171E-03  -0.35245058E-05    9684.0000      -0.48589198E-03
  10205.457      -0.32452594      -0.32295763       -2.4760161      -0.31809409      -0.88906132E-03   0.20189204E-05    9672.0000      -0.60481206E-03
  10214.064      -0.33203335      -0.33033791       -2.4779020      -0.32567991      -0.82317131E-03   0.10272411E-04    19256.000      -0.65384064E-03
  10220.520      -0.33692560      -0.33583799       -2.4793167      -0.33134680      -0.73432512E-03  -0.91210986E-05    19217.000      -0.41943203E-03
  10227.013      -0.34154197      -0.34133844       -2.4807393      -0.33702448      -0.94127850E-03   0.12863663E-05    19169.000      -0.78493320E-04
  10233.546      -0.34918656      -0.34684472       -2.4821709      -0.34271752      -0.71756909E-03   0.30122623E-04    18377.000      -0.90312170E-03
  10240.116      -0.35094442      -0.35235309       -2.4836105      -0.34842086      -0.54657605E-03  -0.82681330E-05    19198.000       0.54324745E-03
  10246.721      -0.35638786      -0.35786421       -2.4850579      -0.35413427      -0.82650414E-03  -0.18760858E-04    19161.000       0.56934739E-03
  10253.363      -0.36189365      -0.36337851       -2.4865132      -0.35985751      -0.79511315E-03  -0.13255474E-05    19131.000       0.57263253E-03
  10260.042      -0.36697897      -0.36889644       -2.4879766      -0.36559034      -0.84416076E-03  -0.38224840E-05    19088.000       0.73946580E-03
  10266.762      -0.37320425      -0.37442297       -2.4894491      -0.37133722      -0.84632919E-03   0.25604692E-05    19026.000       0.46999455E-03
  10273.519      -0.37838518      -0.37995402       -2.4909297      -0.37709316      -0.80965260E-03  -0.45582176E-05    18977.000       0.60501425E-03
  10280.313      -0.38417559      -0.38549008       -2.4924183      -0.38285791      -0.90809614E-03  -0.58516972E-05    18926.000       0.50692984E-03
  10287.143      -0.39075739      -0.39103170       -2.4939150      -0.38863121      -0.88937811E-03   0.12522798E-04    18904.000       0.10578699E-03
  10294.011      -0.39635851      -0.39657941       -2.4954199      -0.39441279      -0.73655572E-03   0.10336254E-04    18900.000       0.85186892E-04
  10300.916      -0.40090156      -0.40213379       -2.4969328      -0.40020241      -0.74702277E-03  -0.52289088E-05    18888.000       0.47520517E-03
  10307.858      -0.40670245      -0.40769542       -2.4984540      -0.40599978      -0.80895980E-03  -0.33348219E-05    18846.000       0.38293737E-03
  10314.837      -0.41216355      -0.41326495       -2.4999833      -0.41180465      -0.79344876E-03   0.25043881E-05    18797.000       0.42474694E-03
  10321.854      -0.41780800      -0.41884300       -2.5015209      -0.41761674      -0.77390698E-03   0.52065683E-05    18761.000       0.39914381E-03
  10328.909      -0.42305383      -0.42443027       -2.5030667      -0.42343578      -0.72018287E-03  -0.47199653E-05    18729.000       0.53081763E-03
  10335.996      -0.42799263      -0.43002302       -2.5046196      -0.42925689      -0.84065545E-03  -0.10368423E-04    18698.000       0.78301163E-03
  10343.127      -0.43500587      -0.43563085       -2.5061820      -0.43508900      -0.86759613E-03   0.92107702E-06    18656.000       0.24101997E-03
  10350.295      -0.44039855      -0.44125005       -2.5077528      -0.44092720      -0.82748480E-03   0.61083186E-06    18640.000       0.32837566E-03
  10357.497      -0.44689675      -0.44687705       -2.5093307      -0.44676668      -0.85881853E-03   0.20648418E-05    18628.000      -0.75988944E-05
  10364.736      -0.45280067      -0.45251704       -2.5109170      -0.45261170      -0.79766662E-03   0.38966853E-05    18608.000      -0.10938023E-03
  10372.014      -0.45847710      -0.45817088       -2.5125118      -0.45846198      -0.80224731E-03  -0.10701120E-05    18564.000      -0.11809314E-03
  10379.331      -0.46450943      -0.46383943       -2.5141150      -0.46431721      -0.81328485E-03   0.18420204E-05    18502.000      -0.25838227E-03
  10386.687      -0.47040994      -0.46952359       -2.5157268      -0.47017711      -0.77522045E-03   0.37412493E-05    18455.000      -0.34181656E-03
  10394.076      -0.47593965      -0.47521994       -2.5173458      -0.47603688      -0.75812208E-03   0.21418613E-05    18434.000      -0.27755157E-03
  10401.504      -0.48164291      -0.48093381       -2.5189734      -0.48190073      -0.74348485E-03  -0.62924105E-06    18386.000      -0.27346074E-03
  10408.965      -0.48700971      -0.48666182       -2.5206084      -0.48776388      -0.76749112E-03  -0.56146063E-05    18322.000      -0.13416316E-03
  10416.472      -0.49313072      -0.49241374       -2.5222532      -0.49363496      -0.82752434E-03   0.29751833E-05    18336.000      -0.27650036E-03
  10424.012      -0.49946137      -0.49818190       -2.5239054      -0.49950474      -0.72272392E-03   0.70626218E-05    18301.000      -0.49342112E-03
  10431.586      -0.50405442      -0.50396739       -2.5255651      -0.50537294      -0.72077549E-03  -0.77097325E-05    18286.000      -0.33561033E-04
  10439.200      -0.51040876      -0.50977571       -2.5272334      -0.51124370      -0.83982204E-03  -0.77772480E-05    18235.000      -0.24413008E-03
  10446.854      -0.51687688      -0.51560801       -2.5289106      -0.51711667      -0.83951906E-03   0.44838841E-05    18189.000      -0.48933492E-03
  10454.543      -0.52328896      -0.52146017       -2.5305952      -0.52298717      -0.77102867E-03   0.74053819E-05    18148.000      -0.70526645E-03
  10462.265      -0.52875935      -0.52733020       -2.5322874      -0.52885488      -0.72539331E-03   0.25465113E-05    18115.000      -0.55114424E-03
  10470.034      -0.53452660      -0.53322453       -2.5339898      -0.53472821      -0.73157866E-03  -0.14135066E-05    18087.000      -0.50213978E-03
  10477.832      -0.54014778      -0.53912763       -2.5356984      -0.54059379      -0.74739727E-03   0.39443350E-06    18013.000      -0.39341865E-03
  10485.671      -0.54621335      -0.54504576       -2.5374160      -0.54645999      -0.72541106E-03   0.53631418E-05    18006.000      -0.45027688E-03
  10493.545      -0.55154566      -0.55097203       -2.5391413      -0.55232216      -0.66312998E-03   0.11063735E-05    17969.000      -0.22121946E-03
  10501.459      -0.55668305      -0.55690815       -2.5408755      -0.55818427      -0.70794330E-03  -0.54014920E-05    17952.000       0.86810297E-04
  10509.409      -0.56277688      -0.56284711       -2.5426175      -0.56404171      -0.74882238E-03  -0.26608855E-05    17913.000       0.27081058E-04
  10517.400      -0.56862016      -0.56879046       -2.5443685      -0.56989840      -0.75036096E-03   0.27614278E-06    17863.000       0.65677091E-04
  10525.421      -0.57479184      -0.57472675       -2.5461261      -0.57574553      -0.74440071E-03   0.26937231E-05    17806.000      -0.25101193E-04
  10533.484      -0.58059280      -0.58066171       -2.5478927      -0.58159124      -0.70703622E-03   0.28949206E-05    17764.000       0.26575112E-04
  10541.583      -0.58621828      -0.58658803       -2.5496672      -0.58743097      -0.69761579E-03   0.24598515E-05    17725.000       0.14259132E-03
  10549.723      -0.59192123      -0.59250692       -2.5514509      -0.59326858      -0.66709120E-03   0.25965785E-05    17700.000       0.22586929E-03
  10557.899      -0.59710310      -0.59841098       -2.5532425      -0.59909950      -0.65524783E-03  -0.11739327E-05    17652.000       0.50437819E-03
  10566.106      -0.60265648      -0.60429283       -2.5550408      -0.60491928      -0.68632432E-03  -0.29999905E-05    17615.000       0.63105316E-03
  10574.356      -0.60839744      -0.61015758       -2.5568484      -0.61073586      -0.70461648E-03  -0.13959226E-05    17586.000       0.67878950E-03
  10582.642      -0.61430745      -0.61599767       -2.5586640      -0.61654477      -0.70940618E-03   0.31413804E-05    17550.000       0.65182438E-03
  10590.970      -0.62018384      -0.62181374       -2.5604889      -0.62234973      -0.65242414E-03  -0.22520337E-06    17530.000       0.62856454E-03
  10599.330      -0.62519518      -0.62759406       -2.5623207      -0.62814220      -0.71316440E-03  -0.42986983E-05    17490.000       0.92511879E-03
  10607.726      -0.63213374      -0.63333914       -2.5641605      -0.63392593      -0.72445382E-03   0.21245328E-05    17444.000       0.46485845E-03
  10616.160      -0.63738803      -0.63904531       -2.5660085      -0.63970058      -0.67740766E-03  -0.29906522E-05    17434.000       0.63912330E-03
  10624.637      -0.64358929      -0.64471271       -2.5678660      -0.64546980      -0.77502832E-03  -0.37214431E-05    17363.000       0.43324246E-03
  10633.146      -0.65055241      -0.65032955       -2.5697304      -0.65122516      -0.74061890E-03   0.49793728E-05    17314.000      -0.85944456E-04
  10641.692      -0.65622045      -0.65589588       -2.5716030      -0.65697033      -0.69010572E-03   0.43573784E-06    17295.000      -0.12517136E-03
  10650.282      -0.66237824      -0.66141143       -2.5734852      -0.66270892      -0.73315198E-03  -0.42027124E-06    17244.000      -0.37284776E-03
  10658.904      -0.66883946      -0.66686442       -2.5753745      -0.66843260      -0.69733942E-03   0.35606177E-05    17177.000      -0.76166476E-03
  10667.564      -0.67442970      -0.67225446       -2.5772720      -0.67414496      -0.67161718E-03   0.28654281E-05    17122.000      -0.83887200E-03
  10676.256      -0.68049363      -0.67757360       -2.5791767      -0.67984172      -0.64761737E-03   0.43182189E-05    17099.000      -0.11260947E-02
  10684.843      -0.68561995      -0.68273544       -2.5810582      -0.68543301      -0.59700224E-03   0.58945477E-05    17069.000      -0.11123973E-02
