# XDI/1.0 Hephaestus/0.9.26
# Element.edge:                  K
# Element.symbol:                Zr
# Column.1:                      energy eV
# Column.2:                      xmu
# Column.3:                      bkg
# Column.4:                      pre_edge
# Column.5:                      post_edge
# Column.6:                      der
# Column.7:                      sec
# Column.8:                      i0
# Column.9:                      chi(e)
# Athena.e0:                     18007.00634
# Athena.eshift:                 0
# Athena.rbkg:                   1
# Athena.importance:             1
# Athena.standard:               None
# Athena.bkg_kweight:            2
# Athena.edge_step:              1.0243704
# Athena.fixed_step:             no
# Athena.pre_edge_range:         -150.000 -45.000
# Athena.pre_edge_line:          0.156693 - 1.2121e-005 * E
# Athena.normalization_range:    100.000 1000.000
# Athena.post_edge_polynomial:   28.161193 - 0.00268045 * E + 6.49754621e-008 * E^2 + 0 * E^3
# Athena.spline_range_energy:    0.000 970.728
# Athena.clamps:                 0 24
# Athena.spline_range_k:         0.000 15.962
# Athena.kweight:                1
# Athena.window:                 hanning
# Athena.phase_correction:       no
# Athena.k_range:                3.000 15.962
# Athena.dk:                     1
# Athena.r_range:                1 3
# Athena.dr:                     0.0
# Athena.window:                 hanning
# Athena.plot_multiplier:        1
# Athena.y_offset:               0
# ///
#------------------------
#   e         xmu        bkg        pre_edge        post_edge        der        sec        i0        chie
  17797.996      -0.52870331E-01  -0.52870331E-01  -0.59035610E-01    1.0367912      -0.84698305E-04  -0.82699034E-06    242105.20        0.0000000
  17808.002      -0.53717785E-01  -0.53717785E-01  -0.59156887E-01    1.0331198      -0.92972806E-04  -0.21623671E-06    242297.20        0.0000000
  17818.002      -0.54730309E-01  -0.54730309E-01  -0.59278097E-01    1.0294635      -0.89024252E-04   0.48192936E-06    241977.20        0.0000000
  17827.996      -0.55497784E-01  -0.55497784E-01  -0.59399240E-01    1.0258222      -0.83336850E-04  -0.81352867E-06    241675.20        0.0000000
  17838.002      -0.56397071E-01  -0.56397071E-01  -0.59520520E-01    1.0221897      -0.10529507E-03  -0.87730029E-06    241040.20        0.0000000
  17848.002      -0.57604319E-01  -0.57604319E-01  -0.59641732E-01    1.0185723      -0.10088814E-03   0.10379210E-05    240904.20        0.0000000
  17857.997      -0.58414307E-01  -0.58414307E-01  -0.59762876E-01    1.0149699      -0.84542068E-04   0.16245457E-05    240492.20        0.0000000
  17868.003      -0.59295199E-01  -0.59295199E-01  -0.59884157E-01    1.0113765      -0.68396493E-04   0.13973838E-05    239564.20        0.0000000
  17878.003      -0.59782653E-01  -0.59782653E-01  -0.60005369E-01    1.0077981      -0.56585895E-04   0.59926749E-06    239078.20        0.0000000
  17887.997      -0.60426616E-01  -0.60426616E-01  -0.60126512E-01    1.0042347      -0.56414326E-04   0.10377980E-06    239054.20        0.0000000
  17898.003      -0.60910954E-01  -0.60910954E-01  -0.60247792E-01    1.0006803      -0.54510272E-04  -0.10594291E-06    238767.20        0.0000000
  17908.003      -0.61517137E-01  -0.61517137E-01  -0.60369002E-01   0.99714093      -0.58533797E-04   0.27789793E-05    238044.20        0.0000000
  17917.997      -0.62081293E-01  -0.62081293E-01  -0.60490141E-01   0.99361660       0.10533339E-05   0.60291204E-05    237734.20        0.0000000
  17928.003      -0.61496071E-01  -0.61496071E-01  -0.60611418E-01   0.99010130       0.62046924E-04   0.27664524E-05    235637.20        0.0000000
  17938.002      -0.60840035E-01  -0.60840035E-01  -0.60732623E-01   0.98660104       0.56396658E-04   0.16838040E-05    234654.20        0.0000000
  17947.996      -0.60368506E-01  -0.60368506E-01  -0.60853758E-01   0.98311583       0.95711992E-04   0.10727592E-04    236045.20        0.0000000
  17958.001      -0.58925907E-01  -0.58925907E-01  -0.60975029E-01   0.97963969       0.27093594E-03   0.15212754E-04    235970.20        0.0000000
  17968.000      -0.54948658E-01  -0.54948658E-01  -0.61096228E-01   0.97617860       0.40003051E-03   0.20754883E-04    235731.20        0.0000000
  17968.996      -0.54527763E-01  -0.54527763E-01  -0.61108293E-01   0.97583477       0.49912593E-03   0.98726534E-04    235549.20        0.0000000
  17970.008      -0.53946388E-01  -0.53946388E-01  -0.61120567E-01   0.97548511       0.59827833E-03   0.16530070E-03    235397.20        0.0000000
  17971.004      -0.53326265E-01  -0.53326265E-01  -0.61132635E-01   0.97514146       0.83109271E-03   0.12972588E-03    235160.20        0.0000000
  17972.000      -0.52291416E-01  -0.52291416E-01  -0.61144704E-01   0.97479790       0.85660408E-03  -0.76281739E-04    234984.20        0.0000000
  17972.996      -0.51620295E-01  -0.51620295E-01  -0.61156774E-01   0.97445444       0.67917381E-03   0.15281438E-03    234854.20        0.0000000
  17973.992      -0.50938658E-01  -0.50938658E-01  -0.61168846E-01   0.97411106       0.11609752E-02   0.25796516E-03    234902.20        0.0000000
  17975.005      -0.49287698E-01  -0.49287698E-01  -0.61181127E-01   0.97376186       0.11974697E-02  -0.65155583E-04    234125.20        0.0000000
  17976.001      -0.48532475E-01  -0.48532475E-01  -0.61193202E-01   0.97341867       0.10300522E-02  -0.87498502E-04    234199.20        0.0000000
  17976.997      -0.47235381E-01  -0.47235381E-01  -0.61205278E-01   0.97307556       0.10231341E-02   0.43347957E-03    234151.20        0.0000000
  17977.994      -0.46493706E-01  -0.46493706E-01  -0.61217355E-01   0.97273255       0.18938339E-02   0.45979447E-03    234277.20        0.0000000
  17979.007      -0.43428642E-01  -0.43428642E-01  -0.61229642E-01   0.97238372       0.19473532E-02  -0.45034773E-03    233761.20        0.0000000
  17980.004      -0.42578961E-01  -0.42578961E-01  -0.61241722E-01   0.97204089       0.98850439E-03  -0.74802883E-04    233884.20        0.0000000
  17981.001      -0.41458227E-01  -0.41458227E-01  -0.61253803E-01   0.97169815       0.17982464E-02   0.64293575E-03    234129.20        0.0000000
  17981.997      -0.38994049E-01  -0.38994049E-01  -0.61265886E-01   0.97135550       0.22702354E-02   0.39428831E-03    233717.20        0.0000000
  17982.994      -0.36931854E-01  -0.36931854E-01  -0.61277970E-01   0.97101295       0.25843745E-02   0.27836065E-03    234079.20        0.0000000
  17983.991      -0.33840807E-01  -0.33840807E-01  -0.61290055E-01   0.97067048       0.28252865E-02   0.42271068E-03    233661.20        0.0000000
  17985.006      -0.31249017E-01  -0.31249017E-01  -0.61302350E-01   0.97032221       0.34346232E-02   0.63920286E-03    233807.20        0.0000000
  17986.003      -0.26931547E-01  -0.26931547E-01  -0.61314438E-01   0.96997992       0.41111390E-02   0.87338944E-03    233743.20        0.0000000
  17987.001      -0.23048610E-01  -0.23048610E-01  -0.61326527E-01   0.96963773       0.51767557E-02   0.99979147E-03    233682.20        0.0000000
  17987.998      -0.16604437E-01  -0.16604437E-01  -0.61338618E-01   0.96929563       0.61056230E-02   0.13519412E-02    233625.20        0.0000000
  17988.996      -0.10867159E-01  -0.10867159E-01  -0.61350710E-01   0.96895362       0.78740407E-02   0.21236474E-02    233617.20        0.0000000
  17989.993      -0.89296995E-03  -0.89296995E-03  -0.61362804E-01   0.96861171       0.10343043E-01   0.27449338E-02    233498.20        0.0000000
  17991.008       0.99511102E-02   0.99511102E-02  -0.61375107E-01   0.96826398       0.13398989E-01   0.47447854E-02    233534.20        0.0000000
  17992.006       0.26079194E-01   0.26079194E-01  -0.61387203E-01   0.96792225       0.19894296E-01   0.78618632E-02    233563.20        0.0000000
  17993.004       0.49660522E-01   0.49660522E-01  -0.61399301E-01   0.96758061       0.29091425E-01   0.11561733E-01    233580.20        0.0000000
  17994.003       0.84152951E-01   0.84152951E-01  -0.61411400E-01   0.96723906       0.42974406E-01   0.15653820E-01    233596.20        0.0000000
  17995.001       0.13545763       0.13545763      -0.61423500E-01   0.96689760       0.60343808E-01   0.16345387E-01    233395.20        0.0000000
  17995.999       0.20464083       0.20464083      -0.61435601E-01   0.96655623       0.75611076E-01   0.83748269E-02    233256.20        0.0000000
  17996.998       0.28644615       0.28644615      -0.61447704E-01   0.96621495       0.77067583E-01  -0.77246316E-02    233311.20        0.0000000
  17997.996       0.35855558       0.35855558      -0.61459809E-01   0.96587376       0.60183905E-01  -0.20443545E-01    233149.20        0.0000000
  17998.995       0.40665567       0.40665567      -0.61471914E-01   0.96553267       0.36234261E-01  -0.19018739E-01    233221.20        0.0000000
  17999.994       0.43093642       0.43093642      -0.61484021E-01   0.96519167       0.22192453E-01  -0.59818505E-02    233343.20        0.0000000
  18000.993       0.45099176       0.45099176      -0.61496130E-01   0.96485075       0.24283720E-01   0.10005856E-01    233059.20        0.0000000
  18001.992       0.47945626       0.47945626      -0.61508239E-01   0.96450993       0.42184552E-01   0.13537315E-01    233216.20        0.0000000
  18003.008       0.53601430       0.53601430      -0.61520559E-01   0.96416333       0.51568042E-01   0.10999052E-01    232807.20        0.0000000
  18004.008       0.58340248       0.58340248      -0.61532672E-01   0.96382269       0.64355452E-01   0.11849783E-01    233155.20        0.0000000
  18005.007       0.66464218       0.66464218      -0.61544786E-01   0.96348215       0.75252322E-01   0.77187479E-02    233144.20        0.0000000
  18006.007       0.73382660       0.73382660      -0.61556901E-01   0.96314170       0.79784688E-01   0.11414158E-02    232962.20        0.0000000
  18007.006       0.82414374       0.79854664      -0.61569017E-01   0.96280134       0.77534183E-01  -0.60943940E-02    232935.20       0.24988137E-01
  18008.006       0.88884690       0.97157079      -0.61581135E-01   0.96246107       0.67599679E-01  -0.10802057E-01    232904.20      -0.80755844E-01
  18009.006       0.95931674       0.98282233      -0.61593254E-01   0.96212089       0.55934283E-01  -0.16135182E-01    232887.20      -0.22946383E-01
  18010.006        1.0007060       0.99215978      -0.61605375E-01   0.96178081       0.35332058E-01  -0.19001991E-01    233077.20       0.83428571E-02
  18011.006        1.0299826       0.99973270      -0.61617497E-01   0.96144081       0.17929350E-01  -0.18215101E-01    232859.20       0.29530255E-01
  18012.006        1.0365695        1.0056908      -0.61629620E-01   0.96110091      -0.11030617E-02  -0.14482561E-01    232943.20       0.30144086E-01
  18013.006        1.0277759        1.0101838      -0.61641745E-01   0.96076110      -0.11043014E-01  -0.73224264E-02    232737.20       0.17173582E-01
  18014.007        1.0144754        1.0133617      -0.61653871E-01   0.96042138      -0.15753260E-01  -0.17433752E-02    232897.20       0.10872340E-02
  18015.007       0.99625446        1.0153743      -0.61665998E-01   0.96008176      -0.14531420E-01   0.34892165E-02    232754.20      -0.18664939E-01
  18016.008       0.98539556        1.0163717      -0.61678127E-01   0.95974223      -0.87707444E-02   0.50313933E-02    232753.20      -0.30239206E-01
  18016.992       0.97885208        1.0165084      -0.61690048E-01   0.95940864      -0.45484317E-02   0.38385768E-02    232728.20      -0.36760421E-01
  18017.992       0.97636984        1.0159372      -0.61702180E-01   0.95906929      -0.11536261E-02   0.26446789E-02    232605.20      -0.38625985E-01
  18018.993       0.97654270        1.0147990      -0.61714312E-01   0.95873003       0.74579218E-03   0.14767434E-02    232462.20      -0.37346157E-01
  18019.995       0.97786296        1.0132444      -0.61726447E-01   0.95839086       0.18029176E-02   0.15405344E-02    232583.20      -0.34539676E-01
  18020.996       0.98015267        1.0114239      -0.61738582E-01   0.95805179       0.38303887E-02   0.28284284E-02    232362.20      -0.30527263E-01
  18021.997       0.98553336        1.0094882      -0.61750719E-01   0.95771280       0.74668737E-02   0.37577214E-02    232059.20      -0.23384932E-01
  18022.998       0.99510687        1.0075747      -0.61762857E-01   0.95737391       0.11356128E-01   0.33337446E-02    232084.20      -0.12171190E-01
  18024.000        1.0082793        1.0057244      -0.61774997E-01   0.95703512       0.14144264E-01   0.16921588E-02    232034.20       0.24941351E-02
  18025.002        1.0234405        1.0039361      -0.61787138E-01   0.95669641       0.14745843E-01  -0.64050491E-03    231822.20       0.19040401E-01
  18026.003        1.0378213        1.0022082      -0.61799280E-01   0.95635780       0.12861070E-01  -0.48679736E-02    231939.20       0.34765838E-01
  18027.005        1.0492093        1.0005393      -0.61811424E-01   0.95601928       0.49922253E-02  -0.42297885E-02    231800.20       0.47512186E-01
  18029.510        1.0553293       0.99661490      -0.61841789E-01   0.95517339      -0.19730097E-02  -0.41361913E-02    463211.40       0.57317540E-01
  18031.066        1.0411980       0.99434935      -0.61860641E-01   0.95464864      -0.11802655E-01  -0.41621261E-02    462926.40       0.45734087E-01
  18032.656        1.0182049       0.99216122      -0.61879915E-01   0.95411246      -0.15064686E-01  -0.36015232E-03    462953.40       0.25424053E-01
  18034.281       0.99276308       0.99005274      -0.61899611E-01   0.95356487      -0.12960592E-01   0.21943519E-02    462995.40       0.26458514E-02
  18035.958       0.97540705       0.98800504      -0.61919940E-01   0.95300005      -0.78186069E-02   0.28449235E-02    462736.40      -0.12298278E-01
  18037.653       0.96639920       0.98606119      -0.61940482E-01   0.95242968      -0.33676808E-02   0.20077951E-02    462792.40      -0.19194220E-01
  18039.400       0.96381626       0.98418163      -0.61961658E-01   0.95184212      -0.90823795E-03   0.67155365E-03    463221.40      -0.19880859E-01
  18041.164       0.96320982       0.98240293      -0.61983047E-01   0.95124904      -0.10094395E-02  -0.37916277E-03    463362.40      -0.18736499E-01
  18042.981       0.96020093       0.98068868      -0.62005069E-01   0.95063881      -0.22662208E-02  -0.43582861E-03    463276.40      -0.20000333E-01
  18044.833       0.95489553       0.97905441      -0.62027516E-01   0.95001727      -0.26084032E-02   0.21168442E-03    462841.40      -0.23584131E-01
  18046.720       0.95044865       0.97749673      -0.62050387E-01   0.94938444      -0.14747772E-02   0.93871029E-03    462831.40      -0.26404586E-01
  18048.642       0.94927837       0.97601124      -0.62073682E-01   0.94874033       0.96697534E-03   0.13966215E-02    462269.40      -0.26096878E-01
  18050.616       0.95421620       0.97458030      -0.62097613E-01   0.94807918       0.39667674E-02   0.13802391E-02    461514.40      -0.19879618E-01
  18052.608       0.96501199       0.97322240      -0.62121759E-01   0.94741259       0.64415005E-02   0.83680232E-03    461510.40      -0.80150759E-02
  18054.653       0.98021764       0.97190602      -0.62146540E-01   0.94672899       0.73445618E-02  -0.20489238E-03    461263.40       0.81138794E-02
  18056.733       0.99530178       0.97063412      -0.62171747E-01   0.94603420       0.55965018E-02  -0.13527495E-02    461047.40       0.24080796E-01
  18058.847        1.0036916       0.96939618      -0.62197380E-01   0.94532824       0.16705893E-02  -0.20255788E-02    460446.40       0.33479523E-01
  18060.997        1.0024264       0.96818034      -0.62223439E-01   0.94461114      -0.30420450E-02  -0.18805161E-02    461090.40       0.33431310E-01
  18063.182       0.99050398       0.96697333      -0.62249926E-01   0.94388291      -0.64816738E-02  -0.82204868E-03    461234.40       0.22970841E-01
  18065.403       0.97387098       0.96576040      -0.62276839E-01   0.94314357      -0.66636298E-02   0.43416426E-03    460797.40       0.79176240E-02
  18067.658       0.96067731       0.96452527      -0.62304180E-01   0.94239315      -0.45383372E-02   0.94169909E-03    460324.40      -0.37564233E-02
  18069.967       0.95315829       0.96324326      -0.62332158E-01   0.94162590      -0.23657717E-02   0.70373507E-03    460183.40      -0.98450421E-02
  18072.293       0.94971304       0.96193061      -0.62360355E-01   0.94085338      -0.12768489E-02   0.25460768E-03    460128.40      -0.11926900E-01
  18074.672       0.94715046       0.96056832      -0.62389190E-01   0.94006409      -0.11677916E-02   0.69777964E-04    460188.40      -0.13098644E-01
  18077.086       0.94411549       0.95916682      -0.62418454E-01   0.93926381      -0.94238358E-03   0.24160679E-03    460125.40      -0.14693252E-01
  18079.536       0.94256665       0.95772696      -0.62448147E-01   0.93845257       0.73983056E-05   0.48383966E-03    459957.40      -0.14799643E-01
  18082.021       0.94415200       0.95624972      -0.62478270E-01   0.93763040       0.14453119E-02   0.53827028E-03    459494.40      -0.11809909E-01
  18084.542       0.94980157       0.95473621      -0.62508822E-01   0.93679731       0.27018663E-02   0.30287209E-03    459145.40      -0.48172397E-02
  18087.115       0.95791568       0.95317713      -0.62540016E-01   0.93594760       0.29881847E-02  -0.12660110E-03    459091.40       0.46258186E-02
  18089.707       0.96523600       0.95159499      -0.62571429E-01   0.93509276       0.20479526E-02  -0.49696037E-03    459093.40       0.13316480E-01
  18092.334       0.96860360       0.94998087      -0.62603273E-01   0.93422710       0.39463308E-03  -0.69202206E-03    458608.40       0.18179685E-01
  18095.014       0.96733046       0.94832575      -0.62635759E-01   0.93334490      -0.16248645E-02  -0.73670643E-03    457914.40       0.18552575E-01
  18097.730       0.95983585       0.94664225      -0.62668678E-01   0.93245192      -0.35806274E-02  -0.54822836E-03    458310.40       0.12879717E-01
  18100.464       0.94781658       0.94494334      -0.62701817E-01   0.93155392      -0.46126268E-02  -0.10849942E-03    458895.40       0.28048807E-02
  18103.251       0.93436866       0.94320969      -0.62735600E-01   0.93063947      -0.41796734E-02   0.37777694E-03    458368.40      -0.86306972E-02
  18106.074       0.92436857       0.94145464      -0.62769815E-01   0.92971433      -0.24932945E-02   0.64875149E-03    458578.40      -0.16679582E-01
  18108.933       0.92020303       0.93968089      -0.62804465E-01   0.92877853      -0.49379828E-03   0.60131556E-03    458529.40      -0.19014466E-01
  18111.827       0.92152773       0.93789138      -0.62839548E-01   0.92783210       0.96609198E-03   0.35690146E-03    458119.40      -0.15974352E-01
  18114.775       0.92584702       0.93607856      -0.62875277E-01   0.92686937       0.15912486E-02   0.11167490E-03    457891.40      -0.99881224E-02
  18117.741       0.93093803       0.93426723      -0.62911229E-01   0.92590176       0.16265128E-02  -0.49451472E-04    457369.40      -0.32500040E-02
  18120.743       0.93555418       0.93245026      -0.62947615E-01   0.92492360       0.12961182E-02  -0.13225682E-03    457013.40       0.30300745E-02
  18123.798       0.93878908       0.93062104      -0.62984650E-01   0.92392926       0.82538558E-03  -0.12791047E-03    456548.40       0.79737134E-02
  18126.872       0.94061319       0.92880458      -0.63021908E-01   0.92293011       0.51212045E-03  -0.87725990E-04    456006.40       0.11527671E-01
  18130.000       0.94196487       0.92698459      -0.63059815E-01   0.92191484       0.28137479E-03  -0.12044989E-03    455625.40       0.14623885E-01
  18133.163       0.94238325       0.92517609      -0.63098158E-01   0.92088916      -0.24560207E-03  -0.22415084E-03    455518.40       0.16797788E-01
  18136.362       0.94040213       0.92338400      -0.63136939E-01   0.91985311      -0.11448746E-02  -0.30135431E-03    455290.40       0.16613259E-01
  18139.581       0.93503588       0.92162291      -0.63175946E-01   0.91881236      -0.21795795E-02  -0.26048866E-03    455258.40       0.13093866E-01
  18142.852       0.92625685       0.91987915      -0.63215603E-01   0.91775565      -0.28354225E-02  -0.11845640E-03    455084.40       0.62259722E-02
  18146.160       0.91637948       0.91816770      -0.63255699E-01   0.91668865      -0.29589942E-02   0.40045893E-04    455229.40      -0.17456775E-02
  18149.505       0.90657303       0.91649036      -0.63296234E-01   0.91561141      -0.25690292E-02   0.18280484E-03    455050.40      -0.96813908E-02
  18152.885       0.89910348       0.91484698      -0.63337209E-01   0.91452396      -0.17296828E-02   0.25602815E-03    454556.40      -0.15368950E-01
  18156.319       0.89478550       0.91322917      -0.63378837E-01   0.91342071      -0.82423582E-03   0.23964819E-03    454298.40      -0.18004880E-01
  18159.773       0.89342652       0.91165307      -0.63420693E-01   0.91231295      -0.79096364E-04   0.19401374E-03    452926.40      -0.17792928E-01
  18163.262       0.89423635       0.91010983      -0.63462990E-01   0.91119509       0.52276081E-03   0.17676346E-03    452371.40      -0.15495841E-01
  18166.788       0.89709402       0.90859888      -0.63505729E-01   0.91006716       0.11610107E-02   0.16035551E-03    452844.40      -0.11231149E-01
  18170.368       0.90248662       0.90711232      -0.63549123E-01   0.90892360       0.16622647E-02   0.71955754E-04    453034.40      -0.45156510E-02
  18173.967       0.90902767       0.90566392      -0.63592747E-01   0.90777565       0.16775918E-02  -0.58536413E-04    452376.40       0.32837212E-02
  18177.621       0.91465297       0.90423859      -0.63637028E-01   0.90661216       0.12377428E-02  -0.13591585E-03    452442.40       0.10166611E-01
  18181.293       0.91809469       0.90284898      -0.63681539E-01   0.90544434       0.68194709E-03  -0.18450129E-03    452136.40       0.14883008E-01
  18185.019       0.91969853       0.90148055      -0.63726708E-01   0.90426107      -0.12733608E-03  -0.25113493E-03    451911.40       0.17784557E-01
  18188.765       0.91714322       0.90014490      -0.63772108E-01   0.90307354      -0.11945657E-02  -0.22222790E-03    451108.40       0.16593919E-01
  18192.565       0.91068481       0.89882799      -0.63818168E-01   0.90187065      -0.18041790E-02  -0.86445109E-04    450240.40       0.11574738E-01
  18196.402       0.90336515       0.89753455      -0.63864673E-01   0.90065800      -0.18547254E-02   0.10396408E-04    449449.40       0.56918869E-02
  18200.258       0.89641678       0.89626851      -0.63911412E-01   0.89944121      -0.17242015E-02   0.38158088E-04    448523.40       0.14473738E-03
  18204.168       0.88997406       0.89501638      -0.63958811E-01   0.89820918      -0.15583687E-02  -0.55758582E-05    446283.40      -0.49223658E-02
  18208.116       0.88417110       0.89378193      -0.64006659E-01   0.89696753      -0.17680166E-02  -0.16253355E-04    442023.40      -0.93821804E-02
  18212.083       0.87598141       0.89256825      -0.64054741E-01   0.89572183      -0.16870030E-02   0.18042043E-03    422913.40      -0.16192229E-01
  18216.104       0.87069475       0.89136215      -0.64103485E-01   0.89446106      -0.32675685E-03   0.30409541E-03    417277.40      -0.20175713E-01
  18220.163       0.87334118       0.89016651      -0.64152679E-01   0.89319078       0.77011833E-03   0.16382150E-03    445220.40      -0.16425044E-01
  18224.258       0.87697456       0.88897857      -0.64202324E-01   0.89191105       0.10090994E-02   0.67973200E-04    454686.40      -0.11718434E-01
  18228.374       0.88162691       0.88780044      -0.64252205E-01   0.89062741       0.13282470E-02   0.71496712E-04    453469.40      -0.60266643E-02
  18232.544       0.88797965       0.88661891      -0.64302751E-01   0.88932889       0.16014804E-02   0.10261344E-04    452213.40       0.13283666E-02
  18236.751       0.89504348       0.88543578      -0.64353749E-01   0.88802106       0.14142125E-02  -0.97750844E-04    451608.40       0.93791321E-02
  18240.996       0.89993292       0.88424755      -0.64405200E-01   0.88670395       0.77526676E-03  -0.18107066E-03    451003.40       0.15312200E-01
  18245.278       0.90165416       0.88305056      -0.64457105E-01   0.88537761      -0.12977157E-03  -0.21743676E-03    450590.40       0.18161012E-01
  18249.580       0.89881895       0.88184588      -0.64509248E-01   0.88404755      -0.10912299E-02  -0.16433193E-03    450125.40       0.16569264E-01
  18253.937       0.89220517       0.88062011      -0.64562060E-01   0.88270288      -0.15527267E-02  -0.42804186E-04    449508.40       0.11309441E-01
  18258.332       0.88522982       0.87937749      -0.64615328E-01   0.88134913      -0.14658428E-02   0.44481868E-04    448933.40       0.57131057E-02
  18262.764       0.87926629       0.87811824      -0.64669051E-01   0.87998633      -0.11600888E-02   0.69754773E-04    448338.40       0.11207338E-02
  18267.216       0.87492310       0.87684771      -0.64723016E-01   0.87861998      -0.84611138E-03   0.49760991E-04    448230.40      -0.18788234E-02
  18271.724       0.87168531       0.87555602      -0.64777653E-01   0.87723924      -0.71424078E-03   0.93714364E-05    447539.40      -0.37786231E-02
  18276.269       0.86845708       0.87424853      -0.64832747E-01   0.87584961      -0.76127185E-03  -0.10364164E-05    446945.40      -0.56536675E-02
  18280.835       0.86474951       0.87293068      -0.64888084E-01   0.87445654      -0.72368336E-03   0.36833926E-04    446756.40      -0.79865335E-02
  18285.456       0.86180896       0.87159255      -0.64944096E-01   0.87304926      -0.42289699E-03   0.66724406E-04    446609.40      -0.95508334E-02
  18290.115       0.86082500       0.87023962      -0.65000568E-01   0.87163324      -0.10447687E-03   0.60162837E-04    446683.40      -0.91906400E-02
  18294.794       0.86083334       0.86887745      -0.65057284E-01   0.87021393       0.13891381E-03   0.50777831E-04    446261.40      -0.78527386E-02
  18299.529       0.86213277       0.86749608      -0.65114677E-01   0.86878057       0.37355578E-03   0.39705527E-04    446235.40      -0.52357168E-02
  18304.284       0.86437850       0.86610632      -0.65172316E-01   0.86734400       0.51573197E-03   0.19464444E-04    445629.40      -0.16867053E-02
  18309.096       0.86706655       0.86469819      -0.65230633E-01   0.86589352       0.55976375E-03  -0.44365553E-05    445203.40       0.23120162E-02
  18313.927       0.86977627       0.86328261      -0.65289197E-01   0.86443992       0.47295057E-03  -0.44360582E-04    444626.40       0.63391706E-02
  18318.797       0.87165492       0.86185485      -0.65348225E-01   0.86297788       0.12939646E-03  -0.93673292E-04    444018.40       0.95669166E-02
  18323.723       0.87104383       0.86041020      -0.65407934E-01   0.86150211      -0.44467205E-03  -0.10726724E-03    443871.40       0.10380657E-01
  18328.670       0.86726480       0.85895966      -0.65467892E-01   0.86002336      -0.92962086E-03  -0.66228950E-04    444013.40       0.81075614E-02
  18333.655       0.86181114       0.85749857      -0.65528316E-01   0.85853634      -0.11024368E-02  -0.96023889E-06    443859.40       0.42099671E-02
  18338.679       0.85623094       0.85602754      -0.65589206E-01   0.85704110      -0.93923152E-03   0.37596744E-04    443442.40       0.19856433E-03
  18343.741       0.85233836       0.85454718      -0.65650564E-01   0.85553770      -0.72324844E-03   0.28839589E-04    443267.40      -0.21562728E-02
  18348.841       0.84888067       0.85305815      -0.65712390E-01   0.85402620      -0.64613881E-03   0.18889825E-04    442812.40      -0.40780943E-02
  18353.981       0.84572179       0.85156113      -0.65774685E-01   0.85250665      -0.52981342E-03   0.25074114E-04    442946.40      -0.57004188E-02
  18359.159       0.84341426       0.85005682      -0.65837449E-01   0.85097912      -0.38743388E-03   0.30894115E-04    442885.40      -0.64845326E-02
  18364.358       0.84170129       0.84855117      -0.65900467E-01   0.84944893      -0.20921777E-03   0.37324237E-04    442424.40      -0.66869150E-02
  18369.614       0.84122691       0.84703455      -0.65964173E-01   0.84790559       0.27880323E-05   0.32475995E-04    441421.40      -0.56694741E-02
  18374.909       0.84173071       0.84551296      -0.66028351E-01   0.84635446       0.13342540E-03   0.17929750E-04    441126.40      -0.36922729E-02
  18380.225       0.84264264       0.84399238      -0.66092784E-01   0.84480082       0.19303415E-03  -0.24185645E-05    440841.40      -0.13176296E-02
  18385.579       0.84379052       0.84246848      -0.66157691E-01   0.84323948       0.10761756E-03  -0.21311421E-04    440966.40       0.12905890E-02
  18390.991       0.84380134       0.84093700      -0.66223289E-01   0.84166528      -0.36423572E-04  -0.21507246E-04    440715.40       0.27961965E-02
  18396.425       0.84339550       0.83940825      -0.66289145E-01   0.84008873      -0.12563304E-03  -0.15782738E-04    440155.40       0.38923935E-02
  18401.897       0.84243123       0.83787696      -0.66355477E-01   0.83850468      -0.20854491E-03  -0.15212444E-04    439343.40       0.44459205E-02
  18407.409       0.84110479       0.83634295      -0.66422285E-01   0.83691318      -0.29273017E-03  -0.19227825E-04    439076.40       0.46485532E-02
  18412.960       0.83919277       0.83480604      -0.66489570E-01   0.83531429      -0.42126137E-03  -0.25319316E-04    438640.40       0.42823691E-02
  18418.533       0.83641879       0.83327097      -0.66557115E-01   0.83371326      -0.57437591E-03  -0.17106990E-04    438879.40       0.30729343E-02
  18424.163       0.83275820       0.83172758      -0.66625358E-01   0.83209980      -0.61290619E-03   0.96755485E-06    438462.40       0.10061012E-02
  18429.815       0.82950410       0.83018554      -0.66693862E-01   0.83048431      -0.56346014E-03   0.14408426E-04    438069.40      -0.66522937E-03
  18435.524       0.82635669       0.82863475      -0.66763065E-01   0.82885653      -0.44921119E-03   0.18293997E-04    437892.40      -0.22238558E-02
  18441.255       0.82436492       0.82708475      -0.66832531E-01   0.82722684      -0.35416876E-03   0.12211565E-04    437194.40      -0.26551210E-02
  18447.026       0.82228309       0.82553037      -0.66902479E-01   0.82559015      -0.30875524E-03   0.12830593E-04    437013.40      -0.31700250E-02
  18452.836       0.82078907       0.82397130      -0.66972910E-01   0.82394653      -0.20557112E-03   0.15438083E-04    436556.40      -0.31065231E-02
  18458.687       0.81988586       0.82240725      -0.67043825E-01   0.82229605      -0.12872712E-03   0.18220738E-04    432811.40      -0.24614007E-02
  18464.560       0.81927999       0.82084270      -0.67115006E-01   0.82064387       0.80325961E-05   0.11087743E-04    430432.40      -0.15255355E-02
  18470.490       0.81998067       0.81926767      -0.67186891E-01   0.81897986       0.21434977E-05  -0.17649195E-04    435706.40       0.69603299E-03
  18476.443       0.81930546       0.81769144      -0.67259044E-01   0.81731428      -0.20169950E-03  -0.21979193E-04    435573.40       0.15756202E-02
  18482.436       0.81757125       0.81610882      -0.67331683E-01   0.81564210      -0.26041049E-03  -0.18731661E-05    434927.40       0.14276430E-02
  18488.469       0.81617375       0.81451941      -0.67404811E-01   0.81396340      -0.22422629E-03   0.48925798E-05    434824.40       0.16149808E-02
  18494.543       0.81485662       0.81292282      -0.67478428E-01   0.81227824      -0.20117754E-03  -0.15273398E-05    434595.40       0.18877862E-02
  18500.656       0.81372191       0.81131863      -0.67552535E-01   0.81058671      -0.24284069E-03  -0.10497786E-04    434321.40       0.23461005E-02
  18506.793       0.81188177       0.80971116      -0.67626912E-01   0.80889390      -0.32977742E-03  -0.14299223E-04    433759.40       0.21189709E-02
  18512.988       0.80965534       0.80809042      -0.67702002E-01   0.80718984      -0.41916813E-03  -0.99237630E-05    433646.40       0.15276855E-02
  18519.205       0.80667886       0.80646546      -0.67777363E-01   0.80548462      -0.45295583E-03  -0.27518671E-06    433632.40       0.20832095E-03
  18525.463       0.80400444       0.80483103      -0.67853218E-01   0.80377330      -0.42260126E-03   0.76711718E-05    432018.40      -0.80693166E-03
  18531.762       0.80137221       0.80318661      -0.67929568E-01   0.80205597      -0.35662801E-03   0.13144958E-04    432556.40      -0.17712421E-02
  18538.084       0.79950360       0.80153645      -0.68006191E-01   0.80033767      -0.25670505E-03   0.11029578E-04    432160.40      -0.19844797E-02
  18544.465       0.79811145       0.79987044      -0.68083532E-01   0.79860853      -0.21652667E-03   0.50341230E-05    431019.40      -0.17171431E-02
  18550.868       0.79673547       0.79819758      -0.68161149E-01   0.79687855      -0.19234741E-03   0.51771294E-05    431114.40      -0.14273275E-02
  18557.313       0.79564015       0.79651252      -0.68239264E-01   0.79514285      -0.15001035E-03   0.13644692E-05    430467.40      -0.85161044E-03
  18563.780       0.79479853       0.79481990      -0.68317656E-01   0.79340643      -0.17472933E-03  -0.31954035E-05    430127.40      -0.20866661E-04
  18570.307       0.79336964       0.79311034      -0.68396769E-01   0.79165952      -0.19153286E-03  -0.37446357E-05    429179.40       0.25313256E-03
  18576.857       0.79229385       0.79139365      -0.68476162E-01   0.78991203      -0.22369793E-03  -0.75404537E-05    429464.40       0.87878533E-03
  18583.449       0.79042994       0.78966526      -0.68556056E-01   0.78815912      -0.29062482E-03  -0.57108759E-05    429546.40       0.74649125E-03
  18590.081       0.78845055       0.78792540      -0.68636452E-01   0.78640087      -0.29922004E-03   0.10460681E-05    428987.40       0.51266128E-03
  18596.756       0.78644813       0.78617432      -0.68717353E-01   0.78463739      -0.27670448E-03   0.25486089E-05    428748.40       0.26729871E-03
  18603.454       0.78475043       0.78441710      -0.68798535E-01   0.78287358      -0.26513979E-03   0.50773702E-07    428218.40       0.32540429E-03
  18610.211       0.78288055       0.78264435      -0.68880446E-01   0.78109984      -0.27602130E-03  -0.42185334E-05    427173.40       0.23057996E-03
  18616.993       0.78101339       0.78086601      -0.68962641E-01   0.77932593      -0.32225442E-03  -0.42312321E-05    426636.40       0.14386995E-03
  18623.797       0.77850247       0.77908236      -0.69045119E-01   0.77755190      -0.33350597E-03   0.35242360E-05    426555.40      -0.56610159E-03
  18630.662       0.77645448       0.77728404      -0.69128330E-01   0.77576822      -0.27407939E-03   0.61745991E-05    426404.40      -0.80982373E-03
  18637.551       0.77473289       0.77548101      -0.69211826E-01   0.77398457      -0.24858294E-03   0.21513311E-06    426404.40      -0.73033012E-03
  18644.481       0.77301924       0.77366876      -0.69295833E-01   0.77219624      -0.27110640E-03   0.59102915E-06    426170.40      -0.63407235E-03
  18651.436       0.77096854       0.77185244      -0.69380128E-01   0.77040806      -0.24037643E-03   0.50393886E-05    425124.40      -0.86287670E-03
  18658.451       0.76966127       0.77002273      -0.69465159E-01   0.76861063      -0.20070810E-03   0.20210614E-05    424506.40      -0.35286250E-03
  18665.490       0.76814774       0.76818964      -0.69550479E-01   0.76681351      -0.21197192E-03  -0.32718708E-05    424058.40      -0.40903245E-04
  18672.572       0.76666811       0.76634868      -0.69636313E-01   0.76501205      -0.24690872E-03  -0.34699043E-05    423459.40       0.31182947E-03
  18679.677       0.76464485       0.76450506      -0.69722439E-01   0.76321104      -0.26119935E-03   0.17889987E-05    422964.40       0.13646787E-03
  18686.844       0.76294024       0.76264951      -0.69809305E-01   0.76140117      -0.22137590E-03   0.94051749E-06    421641.40       0.28381464E-03
  18694.035       0.76146646       0.76079206      -0.69896465E-01   0.75959191      -0.24769593E-03  -0.41198582E-05    421943.40       0.65835736E-03
  18701.250       0.75937199       0.75893308      -0.69983917E-01   0.75778332      -0.28072558E-03  -0.17974171E-05    421073.40       0.42847322E-03
  18708.526       0.75739835       0.75706341      -0.70072115E-01   0.75596618      -0.27374306E-03   0.22113864E-05    421066.40       0.32696660E-03
  18715.827       0.75538158       0.75519305      -0.70160607E-01   0.75414987      -0.24848972E-03   0.18166053E-05    420505.40       0.18403866E-03
  18723.171       0.75375931       0.75331767      -0.70249621E-01   0.75232984      -0.24713960E-03  -0.15447169E-05    420361.40       0.43114109E-03
  18730.539       0.75174563       0.75144244      -0.70338932E-01   0.75051079      -0.27121578E-03  -0.12807223E-05    419948.40       0.29597856E-03
  18737.950       0.74975080       0.74956308      -0.70428767E-01   0.74868819      -0.26606842E-03  -0.49845222E-06    419200.40       0.18324908E-03
  18745.405       0.74779018       0.74768008      -0.70519126E-01   0.74686214      -0.27862592E-03   0.20894189E-06    418531.40       0.10747939E-03
  18752.903       0.74558451       0.74579393      -0.70610012E-01   0.74503276      -0.26294411E-03   0.31049594E-05    417396.40      -0.20443550E-03
  18760.426       0.74384045       0.74390954      -0.70701197E-01   0.74320466      -0.23198583E-03   0.27939319E-05    415947.40      -0.67439402E-04
  18767.993       0.74208396       0.74202192      -0.70792911E-01   0.74137340      -0.22078508E-03  -0.89036459E-06    417729.40       0.60565147E-04
  18775.584       0.74049380       0.74013536      -0.70884927E-01   0.73954359      -0.24548194E-03  -0.25214704E-05    416908.40       0.34991001E-03
  18783.238       0.73834150       0.73824019      -0.70977700E-01   0.73770630      -0.25922580E-03   0.19882505E-05    416359.40       0.98900236E-04
  18790.917       0.73651911       0.73634529      -0.71070777E-01   0.73587064      -0.21499621E-03   0.23046521E-05    415697.40       0.16968290E-03
  18798.621       0.73503418       0.73445024      -0.71164158E-01   0.73403667      -0.22377299E-03  -0.41076723E-05    415149.40       0.57004722E-03
  18806.369       0.73306130       0.73254998      -0.71258073E-01   0.73220001      -0.27846911E-03  -0.30600461E-05    414720.40       0.49915831E-03
  18814.162       0.73070666       0.73064409      -0.71352523E-01   0.73036076      -0.27132727E-03   0.27024131E-05    412127.40       0.61083499E-04
  18821.979       0.72882593       0.72873671      -0.71447280E-01   0.72852345      -0.23628488E-03   0.26297185E-05    412961.40       0.87096683E-04
  18829.841       0.72700184       0.72682278      -0.71542573E-01   0.72668375      -0.23009468E-03  -0.20558850E-05    412827.40       0.17480353E-03
  18837.747       0.72519777       0.72490181      -0.71638405E-01   0.72484176      -0.26870232E-03  -0.52388474E-05    411769.40       0.28891465E-03
  18845.679       0.72274611       0.72297790      -0.71734546E-01   0.72300198      -0.31306807E-03  -0.82239588E-05    410839.40      -0.22628211E-03
  18853.656       0.72021741       0.72104596      -0.71831228E-01   0.72116010      -0.39953103E-03   0.26712872E-05    407202.40      -0.80883992E-03
  18861.677       0.71635462       0.71910545      -0.71928451E-01   0.71931625      -0.27033426E-03   0.21324282E-04    391940.40      -0.26853787E-02
  18869.724       0.71587369       0.71716041      -0.72025987E-01   0.71747486      -0.56893529E-04   0.66690947E-05    402497.40      -0.12561092E-02
  18877.815       0.71543644       0.71520571      -0.72124067E-01   0.71563170      -0.16270434E-03  -0.11673732E-04    409759.40       0.22524361E-03
  18885.933       0.71323635       0.71324535      -0.72222461E-01   0.71379117      -0.24611808E-03  -0.43723454E-05    409136.40      -0.87924970E-05
  18894.096       0.71142953       0.71127417      -0.72321401E-01   0.71194907      -0.23388800E-03   0.56719982E-06    408815.40       0.15166994E-03
  18902.304       0.70940746       0.70929155      -0.72420888E-01   0.71010551      -0.23683268E-03  -0.65974933E-07    408164.40       0.11315350E-03
  18910.538       0.70753555       0.70730147      -0.72520693E-01   0.70826486      -0.23497276E-03  -0.94877137E-06    407074.40       0.22851153E-03
  18918.798       0.70553172       0.70530329      -0.72620817E-01   0.70642719      -0.25248212E-03  -0.20908959E-05    405844.40       0.22299102E-03
  18927.123       0.70334809       0.70328716      -0.72721721E-01   0.70458415      -0.26965060E-03   0.12999464E-05    404983.40       0.59480523E-04
  18935.474       0.70103501       0.70126161      -0.72822947E-01   0.70274430      -0.23080413E-03   0.34862315E-05    403370.40      -0.22121313E-03
  18943.852       0.69948695       0.69922597      -0.72924494E-01   0.70090771      -0.21132919E-03  -0.12509512E-05    403372.40       0.25477001E-03
  18952.275       0.69748440       0.69717492      -0.73026595E-01   0.69907031      -0.25182172E-03  -0.12155599E-05    402788.40       0.30212431E-03
  18960.726       0.69523780       0.69511237      -0.73129019E-01   0.69723634      -0.23184015E-03   0.20759468E-05    402311.40       0.12244476E-03
  18969.241       0.69355115       0.69302824      -0.73232232E-01   0.69539765      -0.21660249E-03  -0.19209574E-06    401599.40       0.51046780E-03
  18977.764       0.69154730       0.69093582      -0.73335538E-01   0.69356673      -0.23511310E-03  -0.21718618E-05    400833.40       0.59692573E-03
